FileType,0
Number of Points,3000
Sweep Time,3e+08
Start Frequency,0
Stop Frequency,1.3e+08
Average Count,1000
Average Type,0
RBW,10000
RBW Filter,0
RBW Filter BW,0
VBW,10000
Sweep Type,0
X Axis Scale,1
PreAmp State,0
Trigger Source,0
Trigger Level,-25
Trigger Edge,0
Trigger Delay Switch,0
Trigger Delay,1
Attenuation,40
Ref Level Offset,0
External Gain,0
Trace Type,0
Detector,0
Trace Math,5
Trace Math Oper1,4
Trace Math Oper2,5
Trace Math Offset,0
Trace Name,0
Full Span,1.3e+08
Y Axis Unit,0
DATA,
0,7.93488
43347.8,-47.9264
86695.6,-42.3701
130043,-36.1195
173391,-36.6666
216739,-37.4017
260087,-43.8094
303434,-41.715
346782,-40.7528
390130,-41.2424
433478,-41.9112
476826,-42.3095
520173,-42.0799
563521,-41.6542
606869,-40.313
650217,-41.1175
693565,-38.2202
736912,-32.9602
780260,-32.5982
823608,-32.0894
866956,-34.8294
910303,-40.8294
953651,-38.3289
996999,-40.1517
1.04035e+06,-41.8336
1.08369e+06,-42.2481
1.12704e+06,-42.0517
1.17039e+06,-41.4892
1.21374e+06,-41.1418
1.25709e+06,-40.8246
1.30043e+06,-40.0912
1.34378e+06,-39.4291
1.38713e+06,-39.0366
1.43048e+06,-36.9593
1.47382e+06,-33.7865
1.51717e+06,-30.8862
1.56052e+06,-27.8244
1.60387e+06,-27.3317
1.64722e+06,-29.3855
1.69056e+06,-32.1954
1.73391e+06,-33.3625
1.77726e+06,-38.2207
1.82061e+06,-40.8316
1.86395e+06,-36.7337
1.9073e+06,-29.5769
1.95065e+06,-28.1338
1.994e+06,-27.4017
2.03735e+06,-27.4109
2.08069e+06,-31.5975
2.12404e+06,-38.7831
2.16739e+06,-35.6417
2.21074e+06,-36.2805
2.25408e+06,-32.4998
2.29743e+06,-29.2353
2.34078e+06,-27.6183
2.38413e+06,-28.3388
2.42748e+06,-27.6714
2.47082e+06,-30.7562
2.51417e+06,-34.8015
2.55752e+06,-35.3661
2.60087e+06,-36.6295
2.64421e+06,-39.287
2.68756e+06,-39.9381
2.73091e+06,-31.6466
2.77426e+06,-30.4562
2.81761e+06,-30.217
2.86095e+06,-32.516
2.9043e+06,-17.3171
2.94765e+06,-16.3082
2.991e+06,-16.3566
3.03434e+06,-18.779
3.07769e+06,-27.4975
3.12104e+06,-31.0264
3.16439e+06,-31.0589
3.20774e+06,-31.9933
3.25108e+06,-36.1219
3.29443e+06,-42.6829
3.33778e+06,-39.9423
3.38113e+06,-38.9988
3.42447e+06,-41.0001
3.46782e+06,-42.9252
3.51117e+06,-41.9906
3.55452e+06,-29.1757
3.59787e+06,-28.0939
3.64121e+06,-19.0139
3.68456e+06,-13.0225
3.72791e+06,-11.7086
3.77126e+06,-12.4388
3.8146e+06,-12.3594
3.85795e+06,-14.2951
3.9013e+06,-28.9222
3.94465e+06,-29.3765
3.988e+06,-28.862
4.03134e+06,-33.6338
4.07469e+06,-41.657
4.11804e+06,-40.643
4.16139e+06,-40.7173
4.20473e+06,-40.4953
4.24808e+06,-40.7002
4.29143e+06,-41.7303
4.33478e+06,-40.7832
4.37813e+06,-39.7116
4.42147e+06,-40.3176
4.46482e+06,-40.4859
4.50817e+06,-30.9055
4.55152e+06,-30.9999
4.59486e+06,-28.7785
4.63821e+06,-28.8544
4.68156e+06,-30.8189
4.72491e+06,-38.3857
4.76826e+06,-37.5432
4.8116e+06,-37.9812
4.85495e+06,-38.9503
4.8983e+06,-39.5401
4.94165e+06,-38.7286
4.98499e+06,-39.0865
5.02834e+06,-39.6345
5.07169e+06,-40.394
5.11504e+06,-42.326
5.15839e+06,-39.8949
5.20173e+06,-38.3705
5.24508e+06,-33.0991
5.28843e+06,-20.8803
5.33178e+06,-19.9677
5.37513e+06,-19.6011
5.41847e+06,-19.0677
5.46182e+06,-19.9778
5.50517e+06,-27.4144
5.54852e+06,-33.3613
5.59186e+06,-31.9475
5.63521e+06,-35.8774
5.67856e+06,-36.0264
5.72191e+06,-32.949
5.76526e+06,-34.3538
5.8086e+06,-33.6577
5.85195e+06,-35.3714
5.8953e+06,-38.3352
5.93865e+06,-36.0008
5.98199e+06,-33.5394
6.02534e+06,-25.8973
6.06869e+06,-15.0908
6.11204e+06,-13.5869
6.15539e+06,-14.0574
6.19873e+06,-13.4479
6.24208e+06,-15.8528
6.28543e+06,-21.4666
6.32878e+06,-27.3724
6.37212e+06,-28.0329
6.41547e+06,-28.4223
6.45882e+06,-28.7646
6.50217e+06,-35.203
6.54552e+06,-32.8532
6.58886e+06,-31.3444
6.63221e+06,-30.5104
6.67556e+06,-26.2442
6.71891e+06,-25.3971
6.76225e+06,-26.6961
6.8056e+06,-25.9342
6.84895e+06,-25.5027
6.8923e+06,-23.2564
6.93565e+06,-22.0501
6.97899e+06,-21.9168
7.02234e+06,-25.5919
7.06569e+06,-30.6039
7.10904e+06,-35.8984
7.15238e+06,-33.982
7.19573e+06,-33.8523
7.23908e+06,-37.1021
7.28243e+06,-33.4853
7.32578e+06,-34.5769
7.36912e+06,-25.4827
7.41247e+06,-24.2748
7.45582e+06,-24.7242
7.49917e+06,-23.9056
7.54251e+06,-23.3326
7.58586e+06,-22.2066
7.62921e+06,-23.1947
7.67256e+06,-23.506
7.71591e+06,-24.0955
7.75925e+06,-22.4862
7.8026e+06,-23.9233
7.84595e+06,-24.7288
7.8893e+06,-28.6028
7.93264e+06,-29.9746
7.97599e+06,-29.8685
8.01934e+06,-31.7428
8.06269e+06,-31.4881
8.10604e+06,-39.7592
8.14938e+06,-39.0977
8.19273e+06,-38.0246
8.23608e+06,-37.6707
8.27943e+06,-34.7841
8.32277e+06,-35.0274
8.36612e+06,-33.1594
8.40947e+06,-33.4361
8.45282e+06,-33.8533
8.49617e+06,-34.42
8.53951e+06,-32.4864
8.58286e+06,-29.1385
8.62621e+06,-29.7487
8.66956e+06,-31.877
8.7129e+06,-34.6564
8.75625e+06,-36.1226
8.7996e+06,-35.1426
8.84295e+06,-37.2435
8.8863e+06,-38.0209
8.92964e+06,-39.2967
8.97299e+06,-31.5848
9.01634e+06,-31.486
9.05969e+06,-28.2027
9.10303e+06,-28.0071
9.14638e+06,-29.2418
9.18973e+06,-27.3235
9.23308e+06,-26.3849
9.27643e+06,-29.8977
9.31977e+06,-31.3529
9.36312e+06,-32.2146
9.40647e+06,-31.8611
9.44982e+06,-32.6746
9.49316e+06,-33.4376
9.53651e+06,-37.3186
9.57986e+06,-39.1249
9.62321e+06,-38.8983
9.66656e+06,-39.3926
9.7099e+06,-40.916
9.75325e+06,-35.2393
9.7966e+06,-27.8617
9.83995e+06,-29.0292
9.88329e+06,-26.3145
9.92664e+06,-26.8437
9.96999e+06,-26.2712
1.00133e+07,-23.9682
1.00567e+07,-25.9774
1.01e+07,-28.7485
1.01434e+07,-21.5187
1.01867e+07,-21.3754
1.02301e+07,-21.3245
1.02734e+07,-29.0263
1.03168e+07,-38.4365
1.03601e+07,-35.6979
1.04035e+07,-36.194
1.04468e+07,-35.525
1.04902e+07,-35.1642
1.05335e+07,-27.1732
1.05769e+07,-25.3344
1.06202e+07,-25.8644
1.06636e+07,-34.9398
1.07069e+07,-35.0778
1.07503e+07,-33.4856
1.07936e+07,-35.659
1.08369e+07,-35.7949
1.08803e+07,-28.4782
1.09236e+07,-26.4237
1.0967e+07,-25.0683
1.10103e+07,-24.7759
1.10537e+07,-26.9729
1.1097e+07,-35.2666
1.11404e+07,-36.9728
1.11837e+07,-36.7521
1.12271e+07,-36.2822
1.12704e+07,-36.7828
1.13138e+07,-36.1366
1.13571e+07,-34.5063
1.14005e+07,-34.4771
1.14438e+07,-35.2349
1.14872e+07,-35.3779
1.15305e+07,-32.7594
1.15739e+07,-33.2407
1.16172e+07,-32.6583
1.16606e+07,-22.7607
1.17039e+07,-16.8043
1.17472e+07,-16.5513
1.17906e+07,-16.0155
1.18339e+07,-17.012
1.18773e+07,-16.4331
1.19206e+07,-37.0601
1.1964e+07,-37.2434
1.20073e+07,-39.8077
1.20507e+07,-38.9951
1.2094e+07,-39.4842
1.21374e+07,-34.9462
1.21807e+07,-37.9915
1.22241e+07,-38.8561
1.22674e+07,-37.795
1.23108e+07,-37.2649
1.23541e+07,-35.4828
1.23975e+07,-33.8598
1.24408e+07,-31.3262
1.24842e+07,-19.0533
1.25275e+07,-19.224
1.25709e+07,-20.5316
1.26142e+07,-21.3542
1.26576e+07,-21.9334
1.27009e+07,-30.2907
1.27442e+07,-38.622
1.27876e+07,-39.5194
1.28309e+07,-38.8617
1.28743e+07,-37.1209
1.29176e+07,-38.0897
1.2961e+07,-36.6783
1.30043e+07,-37.3269
1.30477e+07,-39.1168
1.3091e+07,-35.5655
1.31344e+07,-36.3817
1.31777e+07,-34.0071
1.32211e+07,-34.4627
1.32644e+07,-36.8319
1.33078e+07,-21.2907
1.33511e+07,-18.8815
1.33945e+07,-18.6806
1.34378e+07,-20.6379
1.34812e+07,-40.3163
1.35245e+07,-38.7127
1.35679e+07,-37.4806
1.36112e+07,-38.9212
1.36546e+07,-37.2798
1.36979e+07,-39.3643
1.37412e+07,-36.9578
1.37846e+07,-35.6116
1.38279e+07,-35.738
1.38713e+07,-36.0804
1.39146e+07,-34.4147
1.3958e+07,-28.7023
1.40013e+07,-28.5056
1.40447e+07,-32.1099
1.4088e+07,-31.1896
1.41314e+07,-25.4205
1.41747e+07,-28.0541
1.42181e+07,-31.6959
1.42614e+07,-36.7397
1.43048e+07,-42.2749
1.43481e+07,-36.1889
1.43915e+07,-33.4534
1.44348e+07,-32.3764
1.44782e+07,-34.4792
1.45215e+07,-39.7422
1.45649e+07,-40.6141
1.46082e+07,-40.2451
1.46516e+07,-37.4509
1.46949e+07,-33.3913
1.47382e+07,-32.3935
1.47816e+07,-32.4484
1.48249e+07,-34.0271
1.48683e+07,-34.8799
1.49116e+07,-27.1537
1.4955e+07,-27.9778
1.49983e+07,-29.1776
1.50417e+07,-29.7818
1.5085e+07,-35.6607
1.51284e+07,-40.0372
1.51717e+07,-39.2021
1.52151e+07,-39.1892
1.52584e+07,-40.4841
1.53018e+07,-40.7679
1.53451e+07,-39.488
1.53885e+07,-39.3997
1.54318e+07,-27.9169
1.54752e+07,-29.5361
1.55185e+07,-29.5151
1.55619e+07,-29.1294
1.56052e+07,-27.9392
1.56485e+07,-28.6612
1.56919e+07,-30.4729
1.57352e+07,-32.7392
1.57786e+07,-31.91
1.58219e+07,-36.1044
1.58653e+07,-36.916
1.59086e+07,-42.0119
1.5952e+07,-40.385
1.59953e+07,-41.7056
1.60387e+07,-41.5917
1.6082e+07,-42.337
1.61254e+07,-41.0526
1.61687e+07,-39.9789
1.62121e+07,-40.1681
1.62554e+07,-32.5129
1.62988e+07,-30.4612
1.63421e+07,-31.3687
1.63855e+07,-30.834
1.64288e+07,-31.8624
1.64722e+07,-33.1154
1.65155e+07,-34.5727
1.65589e+07,-34.3029
1.66022e+07,-33.272
1.66455e+07,-31.3953
1.66889e+07,-34.0004
1.67322e+07,-42.0422
1.67756e+07,-40.5084
1.68189e+07,-41.902
1.68623e+07,-39.3619
1.69056e+07,-41.4252
1.6949e+07,-39.7415
1.69923e+07,-35.2779
1.70357e+07,-36.1552
1.7079e+07,-33.9529
1.71224e+07,-31.3783
1.71657e+07,-31.4688
1.72091e+07,-30.3876
1.72524e+07,-31.8616
1.72958e+07,-32.956
1.73391e+07,-26.725
1.73825e+07,-27.0839
1.74258e+07,-28.1526
1.74692e+07,-28.9137
1.75125e+07,-41.6628
1.75559e+07,-37.8914
1.75992e+07,-35.7393
1.76425e+07,-34.9586
1.76859e+07,-25.1001
1.77292e+07,-21.6708
1.77726e+07,-21.6079
1.78159e+07,-20.839
1.78593e+07,-21.8881
1.79026e+07,-23.1905
1.7946e+07,-32.599
1.79893e+07,-33.1872
1.80327e+07,-34.9817
1.8076e+07,-36.6886
1.81194e+07,-39.564
1.81627e+07,-39.3316
1.82061e+07,-40.6451
1.82494e+07,-39.0362
1.82928e+07,-42.7772
1.83361e+07,-41.1582
1.83795e+07,-41.6789
1.84228e+07,-39.6991
1.84662e+07,-40.4176
1.85095e+07,-38.4151
1.85529e+07,-38.9971
1.85962e+07,-38.0758
1.86395e+07,-37.7549
1.86829e+07,-35.8639
1.87262e+07,-35.1733
1.87696e+07,-34.337
1.88129e+07,-32.5835
1.88563e+07,-31.6513
1.88996e+07,-21.9611
1.8943e+07,-21.5102
1.89863e+07,-22.2854
1.90297e+07,-22.3777
1.9073e+07,-25.1776
1.91164e+07,-29.7428
1.91597e+07,-39.0966
1.92031e+07,-38.9654
1.92464e+07,-38.9497
1.92898e+07,-32.9412
1.93331e+07,-30.9325
1.93765e+07,-32.094
1.94198e+07,-30.6542
1.94632e+07,-32.9031
1.95065e+07,-36.7687
1.95498e+07,-35.1544
1.95932e+07,-34.6822
1.96365e+07,-36.461
1.96799e+07,-36.7054
1.97232e+07,-39.6411
1.97666e+07,-40.3227
1.98099e+07,-41.6578
1.98533e+07,-42.1257
1.98966e+07,-40.5085
1.994e+07,-42.2871
1.99833e+07,-42.0011
2.00267e+07,-40.5971
2.007e+07,-39.9458
2.01134e+07,-38.6684
2.01567e+07,-38.6086
2.02001e+07,-39.0161
2.02434e+07,-40.43
2.02868e+07,-39.7906
2.03301e+07,-39.3879
2.03735e+07,-38.31
2.04168e+07,-39.4496
2.04602e+07,-38.3126
2.05035e+07,-39.4559
2.05468e+07,-40.5434
2.05902e+07,-40.1832
2.06335e+07,-40.3558
2.06769e+07,-40.6063
2.07202e+07,-38.175
2.07636e+07,-38.5505
2.08069e+07,-38.7807
2.08503e+07,-39.6069
2.08936e+07,-39.5901
2.0937e+07,-40.0548
2.09803e+07,-40.1855
2.10237e+07,-40.0615
2.1067e+07,-37.6474
2.11104e+07,-39.0758
2.11537e+07,-36.6241
2.11971e+07,-38.0194
2.12404e+07,-39.0472
2.12838e+07,-39.7163
2.13271e+07,-39.9941
2.13705e+07,-41.6652
2.14138e+07,-36.4941
2.14572e+07,-33.9175
2.15005e+07,-33.6714
2.15438e+07,-31.9424
2.15872e+07,-32.548
2.16305e+07,-32.9089
2.16739e+07,-31.9585
2.17172e+07,-32.6055
2.17606e+07,-37.2397
2.18039e+07,-37.4504
2.18473e+07,-39.7484
2.18906e+07,-38.059
2.1934e+07,-34.4225
2.19773e+07,-36.808
2.20207e+07,-36.2736
2.2064e+07,-38.2618
2.21074e+07,-38.2104
2.21507e+07,-41.7179
2.21941e+07,-43.0284
2.22374e+07,-43.675
2.22808e+07,-41.3919
2.23241e+07,-42.1894
2.23675e+07,-40.0539
2.24108e+07,-41.3059
2.24542e+07,-40.1383
2.24975e+07,-41.6491
2.25408e+07,-40.1665
2.25842e+07,-36.8814
2.26275e+07,-35.3539
2.26709e+07,-33.2712
2.27142e+07,-33.6542
2.27576e+07,-33.6878
2.28009e+07,-34.0196
2.28443e+07,-33.7332
2.28876e+07,-35.3879
2.2931e+07,-36.2572
2.29743e+07,-39.7009
2.30177e+07,-41.1952
2.3061e+07,-40.4433
2.31044e+07,-41.3119
2.31477e+07,-37.5536
2.31911e+07,-38.3099
2.32344e+07,-39.553
2.32778e+07,-40.182
2.33211e+07,-40.9923
2.33645e+07,-39.503
2.34078e+07,-41.0983
2.34512e+07,-40.3471
2.34945e+07,-40.7258
2.35378e+07,-40.6726
2.35812e+07,-38.3346
2.36245e+07,-38.474
2.36679e+07,-40.256
2.37112e+07,-40.2991
2.37546e+07,-42.6508
2.37979e+07,-42.3893
2.38413e+07,-39.0017
2.38846e+07,-39.3219
2.3928e+07,-36.9975
2.39713e+07,-37.4959
2.40147e+07,-38.3246
2.4058e+07,-38.5226
2.41014e+07,-40.8964
2.41447e+07,-41.1278
2.41881e+07,-41.1916
2.42314e+07,-40.1862
2.42748e+07,-39.7545
2.43181e+07,-41.3122
2.43615e+07,-39.0376
2.44048e+07,-40.5018
2.44481e+07,-40.8876
2.44915e+07,-40.9185
2.45348e+07,-42.187
2.45782e+07,-41.067
2.46215e+07,-41.965
2.46649e+07,-42.1821
2.47082e+07,-41.8084
2.47516e+07,-41.0507
2.47949e+07,-42.2857
2.48383e+07,-40.4562
2.48816e+07,-40.7748
2.4925e+07,-40.046
2.49683e+07,-40.6494
2.50117e+07,-40.805
2.5055e+07,-39.1297
2.50984e+07,-38.2296
2.51417e+07,-38.6349
2.51851e+07,-37.7202
2.52284e+07,-38.8126
2.52718e+07,-37.0828
2.53151e+07,-39.4937
2.53585e+07,-40.9547
2.54018e+07,-39.9676
2.54451e+07,-40.1433
2.54885e+07,-39.2174
2.55318e+07,-41.1196
2.55752e+07,-39.2715
2.56185e+07,-39.639
2.56619e+07,-40.4096
2.57052e+07,-39.8011
2.57486e+07,-40.7036
2.57919e+07,-39.4232
2.58353e+07,-38.7925
2.58786e+07,-40.3505
2.5922e+07,-39.5513
2.59653e+07,-40.1417
2.60087e+07,-41.1859
2.6052e+07,-41.4667
2.60954e+07,-40.8362
2.61387e+07,-41.7141
2.61821e+07,-40.9094
2.62254e+07,-40.0279
2.62688e+07,-40.604
2.63121e+07,-41.3549
2.63555e+07,-41.1091
2.63988e+07,-41.0417
2.64421e+07,-40.4402
2.64855e+07,-40.1792
2.65288e+07,-39.7679
2.65722e+07,-38.8268
2.66155e+07,-38.6393
2.66589e+07,-40.5655
2.67022e+07,-39.1152
2.67456e+07,-40.0756
2.67889e+07,-39.7027
2.68323e+07,-39.8147
2.68756e+07,-40.2533
2.6919e+07,-41.4145
2.69623e+07,-40.6244
2.70057e+07,-32.7652
2.7049e+07,-38.2322
2.70924e+07,-39.7593
2.71357e+07,-40.3393
2.71791e+07,-31.4654
2.72224e+07,-28.3911
2.72658e+07,-27.5259
2.73091e+07,-27.2766
2.73525e+07,-27.6716
2.73958e+07,-27.5613
2.74391e+07,-27.8923
2.74825e+07,-32.2474
2.75258e+07,-32.1958
2.75692e+07,-31.7057
2.76125e+07,-33.6492
2.76559e+07,-33.5887
2.76992e+07,-33.5186
2.77426e+07,-34.4009
2.77859e+07,-34.2913
2.78293e+07,-34.2262
2.78726e+07,-36.6722
2.7916e+07,-39.1272
2.79593e+07,-39.4296
2.80027e+07,-38.373
2.8046e+07,-38.0428
2.80894e+07,-36.1442
2.81327e+07,-36.6619
2.81761e+07,-36.977
2.82194e+07,-36.6188
2.82628e+07,-35.1885
2.83061e+07,-34.5865
2.83494e+07,-35.3608
2.83928e+07,-33.9587
2.84361e+07,-32.4885
2.84795e+07,-31.9445
2.85228e+07,-30.7539
2.85662e+07,-30.3899
2.86095e+07,-31.5942
2.86529e+07,-30.5685
2.86962e+07,-30.8712
2.87396e+07,-30.2243
2.87829e+07,-29.4898
2.88263e+07,-30.297
2.88696e+07,-31.2099
2.8913e+07,-32.2573
2.89563e+07,-34.8705
2.89997e+07,-34.0745
2.9043e+07,-35.3853
2.90864e+07,-32.937
2.91297e+07,-32.3635
2.91731e+07,-32.5513
2.92164e+07,-31.6496
2.92598e+07,-32.8132
2.93031e+07,-33.7609
2.93464e+07,-33.7693
2.93898e+07,-32.902
2.94331e+07,-34.2122
2.94765e+07,-34.5904
2.95198e+07,-32.0948
2.95632e+07,-31.8106
2.96065e+07,-33.2659
2.96499e+07,-33.4498
2.96932e+07,-31.2354
2.97366e+07,-30.7974
2.97799e+07,-30.6959
2.98233e+07,-29.4616
2.98666e+07,-30.7064
2.991e+07,-29.1608
2.99533e+07,-30.5775
2.99967e+07,-30.2946
3.004e+07,-31.3939
3.00834e+07,-29.2481
3.01267e+07,-32.9539
3.01701e+07,-33.0398
3.02134e+07,-33.7837
3.02568e+07,-32.5539
3.03001e+07,-30.9449
3.03434e+07,-31.9539
3.03868e+07,-30.6689
3.04301e+07,-30.2669
3.04735e+07,-29.3974
3.05168e+07,-30.1589
3.05602e+07,-30.6672
3.06035e+07,-29.9889
3.06469e+07,-30.6204
3.06902e+07,-32.0968
3.07336e+07,-31.7676
3.07769e+07,-32.533
3.08203e+07,-32.7565
3.08636e+07,-33.3739
3.0907e+07,-34.0298
3.09503e+07,-37.013
3.09937e+07,-36.1084
3.1037e+07,-37.7049
3.10804e+07,-30.5775
3.11237e+07,-30.8417
3.11671e+07,-30.877
3.12104e+07,-29.9275
3.12538e+07,-30.9087
3.12971e+07,-29.5113
3.13404e+07,-29.0973
3.13838e+07,-30.1731
3.14271e+07,-29.379
3.14705e+07,-29.941
3.15138e+07,-30.4844
3.15572e+07,-29.199
3.16005e+07,-31.4217
3.16439e+07,-32.7069
3.16872e+07,-33.2578
3.17306e+07,-33.1012
3.17739e+07,-34.7081
3.18173e+07,-35.5261
3.18606e+07,-35.2561
3.1904e+07,-34.9962
3.19473e+07,-37.0447
3.19907e+07,-37.0721
3.2034e+07,-38.0501
3.20774e+07,-37.9277
3.21207e+07,-37.4289
3.21641e+07,-36.583
3.22074e+07,-35.7561
3.22508e+07,-35.5123
3.22941e+07,-34.5293
3.23374e+07,-36.0374
3.23808e+07,-36.4906
3.24241e+07,-33.5322
3.24675e+07,-35.1194
3.25108e+07,-34.6849
3.25542e+07,-34.6507
3.25975e+07,-34.5247
3.26409e+07,-33.8899
3.26842e+07,-34.0773
3.27276e+07,-34.0277
3.27709e+07,-35.7371
3.28143e+07,-34.3577
3.28576e+07,-38.0587
3.2901e+07,-38.792
3.29443e+07,-37.195
3.29877e+07,-40.6021
3.3031e+07,-39.8025
3.30744e+07,-40.3137
3.31177e+07,-40.2846
3.31611e+07,-40.6921
3.32044e+07,-40.8606
3.32477e+07,-40.3935
3.32911e+07,-40.3349
3.33344e+07,-40.1083
3.33778e+07,-39.6217
3.34211e+07,-40.6648
3.34645e+07,-39.7193
3.35078e+07,-39.11
3.35512e+07,-39.3017
3.35945e+07,-39.4681
3.36379e+07,-38.3122
3.36812e+07,-39.8039
3.37246e+07,-40.0505
3.37679e+07,-40.2573
3.38113e+07,-39.2815
3.38546e+07,-40.0219
3.3898e+07,-39.333
3.39413e+07,-40.1277
3.39847e+07,-40.1525
3.4028e+07,-40.7963
3.40714e+07,-39.4173
3.41147e+07,-39.5493
3.41581e+07,-39.0922
3.42014e+07,-38.9635
3.42447e+07,-39.4037
3.42881e+07,-39.2672
3.43314e+07,-38.3188
3.43748e+07,-39.0254
3.44181e+07,-38.2437
3.44615e+07,-38.5555
3.45048e+07,-40.0587
3.45482e+07,-39.7397
3.45915e+07,-39.9741
3.46349e+07,-40.4481
3.46782e+07,-39.8317
3.47216e+07,-40.7981
3.47649e+07,-41.8075
3.48083e+07,-40.8866
3.48516e+07,-40.9528
3.4895e+07,-39.6776
3.49383e+07,-39.9486
3.49817e+07,-39.9799
3.5025e+07,-38.9113
3.50684e+07,-38.0744
3.51117e+07,-39.5829
3.51551e+07,-38.5683
3.51984e+07,-37.8658
3.52417e+07,-38.6487
3.52851e+07,-38.2468
3.53284e+07,-39.609
3.53718e+07,-40.2704
3.54151e+07,-39.2027
3.54585e+07,-38.2462
3.55018e+07,-39.8947
3.55452e+07,-40.7802
3.55885e+07,-41.0528
3.56319e+07,-40.6731
3.56752e+07,-40.7951
3.57186e+07,-40.43
3.57619e+07,-40.382
3.58053e+07,-41.4823
3.58486e+07,-42.1656
3.5892e+07,-41.2077
3.59353e+07,-41.1633
3.59787e+07,-39.766
3.6022e+07,-39.5868
3.60654e+07,-41.0831
3.61087e+07,-41.6324
3.61521e+07,-41.477
3.61954e+07,-41.2269
3.62387e+07,-42.3005
3.62821e+07,-39.4961
3.63254e+07,-41.0426
3.63688e+07,-42.4059
3.64121e+07,-40.6141
3.64555e+07,-40.8893
3.64988e+07,-40.9009
3.65422e+07,-41.3807
3.65855e+07,-41.3847
3.66289e+07,-41.2256
3.66722e+07,-41.5926
3.67156e+07,-41.1369
3.67589e+07,-41.0889
3.68023e+07,-40.3972
3.68456e+07,-40.5714
3.6889e+07,-41.0766
3.69323e+07,-41.4913
3.69757e+07,-42.6862
3.7019e+07,-43.0372
3.70624e+07,-41.7832
3.71057e+07,-42.3851
3.7149e+07,-42.2977
3.71924e+07,-42.293
3.72357e+07,-41.8562
3.72791e+07,-42.1747
3.73224e+07,-41.4568
3.73658e+07,-41.5905
3.74091e+07,-41.7477
3.74525e+07,-41.7133
3.74958e+07,-41.7004
3.75392e+07,-42.0575
3.75825e+07,-41.1182
3.76259e+07,-41.8855
3.76692e+07,-41.8766
3.77126e+07,-42.0971
3.77559e+07,-41.3976
3.77993e+07,-42.722
3.78426e+07,-42.985
3.7886e+07,-41.8629
3.79293e+07,-41.4882
3.79727e+07,-42.6354
3.8016e+07,-42.7598
3.80594e+07,-40.8147
3.81027e+07,-42.9398
3.8146e+07,-42.368
3.81894e+07,-42.0733
3.82327e+07,-42.7688
3.82761e+07,-42.0419
3.83194e+07,-41.3015
3.83628e+07,-42.4229
3.84061e+07,-43.3214
3.84495e+07,-41.7875
3.84928e+07,-42.9042
3.85362e+07,-41.5911
3.85795e+07,-43.1275
3.86229e+07,-39.2667
3.86662e+07,-41.329
3.87096e+07,-42.1119
3.87529e+07,-42.4589
3.87963e+07,-42.4448
3.88396e+07,-42.2787
3.8883e+07,-42.9374
3.89263e+07,-40.8005
3.89697e+07,-42.566
3.9013e+07,-42.1874
3.90564e+07,-42.0395
3.90997e+07,-42.4858
3.9143e+07,-41.0775
3.91864e+07,-41.8328
3.92297e+07,-42.684
3.92731e+07,-42.9658
3.93164e+07,-42.9459
3.93598e+07,-44.0425
3.94031e+07,-42.6453
3.94465e+07,-42.7747
3.94898e+07,-42.7071
3.95332e+07,-41.7112
3.95765e+07,-43.1093
3.96199e+07,-42.7163
3.96632e+07,-42.616
3.97066e+07,-42.6969
3.97499e+07,-43.0988
3.97933e+07,-42.2986
3.98366e+07,-42.6917
3.988e+07,-41.3951
3.99233e+07,-42.6389
3.99667e+07,-41.9571
4.001e+07,-42.5487
4.00534e+07,-42.2159
4.00967e+07,-41.8127
4.014e+07,-42.9188
4.01834e+07,-41.5188
4.02267e+07,-41.9695
4.02701e+07,-41.5227
4.03134e+07,-42.5195
4.03568e+07,-41.3689
4.04001e+07,-42.3749
4.04435e+07,-39.9735
4.04868e+07,-42.0796
4.05302e+07,-42.5706
4.05735e+07,-41.5302
4.06169e+07,-41.3394
4.06602e+07,-41.6141
4.07036e+07,-40.8027
4.07469e+07,-42.0165
4.07903e+07,-41.776
4.08336e+07,-43.2677
4.0877e+07,-42.1862
4.09203e+07,-41.5333
4.09637e+07,-42.6739
4.1007e+07,-43.7784
4.10504e+07,-41.8358
4.10937e+07,-43.5425
4.1137e+07,-42.3634
4.11804e+07,-41.4949
4.12237e+07,-41.1791
4.12671e+07,-42.1804
4.13104e+07,-41.6715
4.13538e+07,-41.5993
4.13971e+07,-42.3857
4.14405e+07,-42.0321
4.14838e+07,-41.3819
4.15272e+07,-42.9243
4.15705e+07,-41.7092
4.16139e+07,-43.023
4.16572e+07,-42.4359
4.17006e+07,-42.7099
4.17439e+07,-43.0776
4.17873e+07,-43.0724
4.18306e+07,-41.9645
4.1874e+07,-42.1245
4.19173e+07,-42.6137
4.19607e+07,-42.8984
4.2004e+07,-41.3228
4.20473e+07,-41.9815
4.20907e+07,-40.2786
4.2134e+07,-41.0723
4.21774e+07,-39.8845
4.22207e+07,-41.4541
4.22641e+07,-42.1954
4.23074e+07,-42.7321
4.23508e+07,-42.1771
4.23941e+07,-42.703
4.24375e+07,-42.2267
4.24808e+07,-41.9142
4.25242e+07,-42.3499
4.25675e+07,-41.358
4.26109e+07,-42.7071
4.26542e+07,-40.7161
4.26976e+07,-42.6208
4.27409e+07,-42.0015
4.27843e+07,-42.1532
4.28276e+07,-41.7654
4.2871e+07,-42.0232
4.29143e+07,-42.4414
4.29577e+07,-42.4412
4.3001e+07,-41.9258
4.30443e+07,-42.6818
4.30877e+07,-41.7948
4.3131e+07,-42.841
4.31744e+07,-41.4803
4.32177e+07,-41.9647
4.32611e+07,-41.991
4.33044e+07,-41.4383
4.33478e+07,-41.6355
4.33911e+07,-41.2492
4.34345e+07,-42.2236
4.34778e+07,-40.6717
4.35212e+07,-42.1644
4.35645e+07,-42.2459
4.36079e+07,-40.9101
4.36512e+07,-41.9898
4.36946e+07,-42.3786
4.37379e+07,-41.8972
4.37813e+07,-41.6554
4.38246e+07,-42.7902
4.3868e+07,-41.5368
4.39113e+07,-41.358
4.39547e+07,-41.1747
4.3998e+07,-42.3823
4.40413e+07,-42.3314
4.40847e+07,-42.7074
4.4128e+07,-42.5031
4.41714e+07,-42.794
4.42147e+07,-43.025
4.42581e+07,-41.1296
4.43014e+07,-42.526
4.43448e+07,-42.409
4.43881e+07,-42.2936
4.44315e+07,-42.8663
4.44748e+07,-42.5963
4.45182e+07,-42.3207
4.45615e+07,-42.7734
4.46049e+07,-43.4267
4.46482e+07,-42.7297
4.46916e+07,-41.8767
4.47349e+07,-42.1292
4.47783e+07,-42.265
4.48216e+07,-42.6667
4.4865e+07,-41.6776
4.49083e+07,-41.8717
4.49517e+07,-40.7934
4.4995e+07,-39.9455
4.50383e+07,-40.5311
4.50817e+07,-40.4121
4.5125e+07,-41.147
4.51684e+07,-40.9956
4.52117e+07,-41.2072
4.52551e+07,-40.9993
4.52984e+07,-41.788
4.53418e+07,-41.3289
4.53851e+07,-42.8145
4.54285e+07,-41.6333
4.54718e+07,-39.8987
4.55152e+07,-41.263
4.55585e+07,-42.3038
4.56019e+07,-40.9196
4.56452e+07,-42.0949
4.56886e+07,-41.1734
4.57319e+07,-41.0453
4.57753e+07,-42.1665
4.58186e+07,-41.9346
4.5862e+07,-40.4764
4.59053e+07,-41.6701
4.59486e+07,-41.2089
4.5992e+07,-41.6316
4.60353e+07,-41.9913
4.60787e+07,-42.0668
4.6122e+07,-42.4782
4.61654e+07,-41.8853
4.62087e+07,-41.446
4.62521e+07,-42.3154
4.62954e+07,-40.9214
4.63388e+07,-41.6475
4.63821e+07,-40.1285
4.64255e+07,-41.5625
4.64688e+07,-42.3101
4.65122e+07,-41.3953
4.65555e+07,-40.579
4.65989e+07,-40.5713
4.66422e+07,-41.9629
4.66856e+07,-43.3164
4.67289e+07,-42.1545
4.67723e+07,-41.9713
4.68156e+07,-40.3846
4.6859e+07,-42.2357
4.69023e+07,-42.2083
4.69456e+07,-42.6889
4.6989e+07,-41.2179
4.70323e+07,-41.7395
4.70757e+07,-41.7523
4.7119e+07,-40.8409
4.71624e+07,-42.3034
4.72057e+07,-41.7907
4.72491e+07,-42.6163
4.72924e+07,-41.6021
4.73358e+07,-42.828
4.73791e+07,-42.493
4.74225e+07,-43.5866
4.74658e+07,-42.7693
4.75092e+07,-42.0356
4.75525e+07,-42.891
4.75959e+07,-43.14
4.76392e+07,-42.3572
4.76826e+07,-40.8819
4.77259e+07,-41.5501
4.77693e+07,-41.7501
4.78126e+07,-40.301
4.7856e+07,-41.0189
4.78993e+07,-42.1374
4.79426e+07,-42.5195
4.7986e+07,-40.8072
4.80293e+07,-41.4779
4.80727e+07,-40.7992
4.8116e+07,-41.7534
4.81594e+07,-41.0338
4.82027e+07,-41.7316
4.82461e+07,-41.5233
4.82894e+07,-42.7377
4.83328e+07,-42.8837
4.83761e+07,-41.6882
4.84195e+07,-42.1358
4.84628e+07,-42.7083
4.85062e+07,-42.6745
4.85495e+07,-41.8911
4.85929e+07,-40.4531
4.86362e+07,-42.868
4.86796e+07,-42.3586
4.87229e+07,-40.705
4.87663e+07,-42.3076
4.88096e+07,-41.5005
4.8853e+07,-41.3551
4.88963e+07,-42.3026
4.89396e+07,-41.3878
4.8983e+07,-40.968
4.90263e+07,-42.152
4.90697e+07,-40.0314
4.9113e+07,-41.2356
4.91564e+07,-40.8268
4.91997e+07,-41.4077
4.92431e+07,-42.0838
4.92864e+07,-40.563
4.93298e+07,-41.6596
4.93731e+07,-42.0477
4.94165e+07,-40.2415
4.94598e+07,-42.2186
4.95032e+07,-41.1818
4.95465e+07,-41.7317
4.95899e+07,-41.9054
4.96332e+07,-42.2408
4.96766e+07,-42.5283
4.97199e+07,-41.8875
4.97633e+07,-42.3137
4.98066e+07,-42.6705
4.98499e+07,-41.5141
4.98933e+07,-41.9089
4.99366e+07,-41.9748
4.998e+07,-42.1581
5.00233e+07,-42.313
5.00667e+07,-42.3822
5.011e+07,-42.6506
5.01534e+07,-41.7215
5.01967e+07,-42.7081
5.02401e+07,-42.1712
5.02834e+07,-42.5552
5.03268e+07,-41.1034
5.03701e+07,-42.2712
5.04135e+07,-41.1394
5.04568e+07,-42.0764
5.05002e+07,-42.2481
5.05435e+07,-40.6812
5.05869e+07,-42.7461
5.06302e+07,-41.4168
5.06736e+07,-43.0261
5.07169e+07,-41.3505
5.07603e+07,-41.868
5.08036e+07,-42.4932
5.08469e+07,-42.6783
5.08903e+07,-42.2339
5.09336e+07,-41.4538
5.0977e+07,-41.7937
5.10203e+07,-42.2382
5.10637e+07,-41.5079
5.1107e+07,-40.6499
5.11504e+07,-42.0262
5.11937e+07,-41.4076
5.12371e+07,-40.8379
5.12804e+07,-42.0216
5.13238e+07,-41.4949
5.13671e+07,-42.3989
5.14105e+07,-42.6105
5.14538e+07,-41.0698
5.14972e+07,-41.6724
5.15405e+07,-41.5957
5.15839e+07,-40.8685
5.16272e+07,-41.1055
5.16706e+07,-40.1723
5.17139e+07,-40.7407
5.17573e+07,-40.0578
5.18006e+07,-41.7449
5.18439e+07,-41.1212
5.18873e+07,-42.0519
5.19306e+07,-41.8226
5.1974e+07,-42.0652
5.20173e+07,-41.557
5.20607e+07,-40.5465
5.2104e+07,-42.2686
5.21474e+07,-41.68
5.21907e+07,-41.8266
5.22341e+07,-41.9669
5.22774e+07,-42.1546
5.23208e+07,-42.3603
5.23641e+07,-42.8212
5.24075e+07,-42.7289
5.24508e+07,-41.1444
5.24942e+07,-41.6028
5.25375e+07,-42.3739
5.25809e+07,-42.1091
5.26242e+07,-41.7782
5.26676e+07,-41.9398
5.27109e+07,-40.6437
5.27543e+07,-41.0042
5.27976e+07,-41.5769
5.28409e+07,-40.2246
5.28843e+07,-40.5754
5.29276e+07,-39.8249
5.2971e+07,-40.689
5.30143e+07,-40.8976
5.30577e+07,-40.4889
5.3101e+07,-39.8905
5.31444e+07,-41.4213
5.31877e+07,-39.9288
5.32311e+07,-40.526
5.32744e+07,-41.0511
5.33178e+07,-40.3185
5.33611e+07,-40.8231
5.34045e+07,-39.6023
5.34478e+07,-41.3217
5.34912e+07,-39.7483
5.35345e+07,-41.6139
5.35779e+07,-41.9605
5.36212e+07,-41.1668
5.36646e+07,-41.1426
5.37079e+07,-41.6862
5.37513e+07,-40.5665
5.37946e+07,-42.0045
5.38379e+07,-40.0547
5.38813e+07,-40.5288
5.39246e+07,-39.8476
5.3968e+07,-39.9206
5.40113e+07,-40.3836
5.40547e+07,-38.6331
5.4098e+07,-38.3019
5.41414e+07,-39.2999
5.41847e+07,-39.3423
5.42281e+07,-39.3193
5.42714e+07,-39.7129
5.43148e+07,-39.3159
5.43581e+07,-38.8185
5.44015e+07,-37.1816
5.44448e+07,-38.6235
5.44882e+07,-39.4504
5.45315e+07,-39.345
5.45749e+07,-40.1141
5.46182e+07,-39.0553
5.46616e+07,-38.7506
5.47049e+07,-40.0925
5.47482e+07,-38.6381
5.47916e+07,-38.7443
5.48349e+07,-39.205
5.48783e+07,-39.3904
5.49216e+07,-37.6902
5.4965e+07,-38.4646
5.50083e+07,-38.1112
5.50517e+07,-39.3573
5.5095e+07,-39.7699
5.51384e+07,-40.4746
5.51817e+07,-39.7801
5.52251e+07,-38.9569
5.52684e+07,-40.1885
5.53118e+07,-40.2064
5.53551e+07,-39.7284
5.53985e+07,-39.9922
5.54418e+07,-38.5292
5.54852e+07,-39.8939
5.55285e+07,-39.6431
5.55719e+07,-39.7076
5.56152e+07,-38.1958
5.56586e+07,-37.9778
5.57019e+07,-37.1161
5.57452e+07,-37.9414
5.57886e+07,-38.343
5.58319e+07,-37.6457
5.58753e+07,-38.184
5.59186e+07,-38.0054
5.5962e+07,-39.085
5.60053e+07,-38.9151
5.60487e+07,-38.776
5.6092e+07,-38.8406
5.61354e+07,-38.3746
5.61787e+07,-40.0654
5.62221e+07,-39.3687
5.62654e+07,-39.2675
5.63088e+07,-38.6328
5.63521e+07,-39.8025
5.63955e+07,-40.2847
5.64388e+07,-39.6079
5.64822e+07,-41.5082
5.65255e+07,-40.2336
5.65689e+07,-41.0781
5.66122e+07,-39.4373
5.66556e+07,-39.1477
5.66989e+07,-40.0859
5.67422e+07,-38.4383
5.67856e+07,-39.5068
5.68289e+07,-38.5899
5.68723e+07,-36.2477
5.69156e+07,-36.6606
5.6959e+07,-36.1996
5.70023e+07,-36.9636
5.70457e+07,-35.9589
5.7089e+07,-35.7249
5.71324e+07,-36.6576
5.71757e+07,-36.2447
5.72191e+07,-36.0812
5.72624e+07,-36.8565
5.73058e+07,-34.7055
5.73491e+07,-36.99
5.73925e+07,-37.5199
5.74358e+07,-38.6607
5.74792e+07,-39.9603
5.75225e+07,-39.0061
5.75659e+07,-36.3543
5.76092e+07,-38.7484
5.76526e+07,-37.3302
5.76959e+07,-38.0187
5.77392e+07,-37.3508
5.77826e+07,-36.6462
5.78259e+07,-36.5364
5.78693e+07,-35.9966
5.79126e+07,-36.9288
5.7956e+07,-36.4348
5.79993e+07,-37.4337
5.80427e+07,-36.3113
5.8086e+07,-35.6533
5.81294e+07,-35.4836
5.81727e+07,-35.5361
5.82161e+07,-36.2121
5.82594e+07,-35.4456
5.83028e+07,-36.306
5.83461e+07,-37.7131
5.83895e+07,-36.2758
5.84328e+07,-36.6733
5.84762e+07,-34.1305
5.85195e+07,-35.8974
5.85629e+07,-36.2615
5.86062e+07,-36.5556
5.86495e+07,-36.3281
5.86929e+07,-35.9966
5.87362e+07,-37.1398
5.87796e+07,-35.2396
5.88229e+07,-36.8154
5.88663e+07,-36.3623
5.89096e+07,-36.0788
5.8953e+07,-34.1077
5.89963e+07,-35.3873
5.90397e+07,-36.4787
5.9083e+07,-36.8294
5.91264e+07,-34.92
5.91697e+07,-35.1633
5.92131e+07,-36.2413
5.92564e+07,-34.5197
5.92998e+07,-34.3909
5.93431e+07,-34.9569
5.93865e+07,-35.6091
5.94298e+07,-36.885
5.94732e+07,-36.7989
5.95165e+07,-37.3251
5.95599e+07,-35.6663
5.96032e+07,-36.9117
5.96465e+07,-35.6361
5.96899e+07,-33.3871
5.97332e+07,-34.9795
5.97766e+07,-36.8299
5.98199e+07,-37.275
5.98633e+07,-36.7467
5.99066e+07,-36.5901
5.995e+07,-36.4199
5.99933e+07,-35.7514
6.00367e+07,-36.64
6.008e+07,-36.7801
6.01234e+07,-36.2847
6.01667e+07,-37.0549
6.02101e+07,-37.128
6.02534e+07,-37.1559
6.02968e+07,-37.557
6.03401e+07,-37.9357
6.03835e+07,-36.5983
6.04268e+07,-34.7411
6.04702e+07,-33.2833
6.05135e+07,-34.5841
6.05569e+07,-35.0889
6.06002e+07,-36.0696
6.06435e+07,-36.2534
6.06869e+07,-35.971
6.07302e+07,-35.4764
6.07736e+07,-34.8977
6.08169e+07,-33.9392
6.08603e+07,-34.3939
6.09036e+07,-33.1093
6.0947e+07,-34.2814
6.09903e+07,-33.8216
6.10337e+07,-36.5798
6.1077e+07,-35.3462
6.11204e+07,-35.583
6.11637e+07,-32.9848
6.12071e+07,-32.8891
6.12504e+07,-33.5141
6.12938e+07,-33.3497
6.13371e+07,-34.1965
6.13805e+07,-35.5484
6.14238e+07,-32.2386
6.14672e+07,-31.2318
6.15105e+07,-31.2562
6.15539e+07,-33.7458
6.15972e+07,-37.4553
6.16405e+07,-35.4864
6.16839e+07,-34.9227
6.17272e+07,-35.4192
6.17706e+07,-37.298
6.18139e+07,-36.0684
6.18573e+07,-36.6927
6.19006e+07,-35.9388
6.1944e+07,-36.4777
6.19873e+07,-37.8839
6.20307e+07,-37.6111
6.2074e+07,-35.3849
6.21174e+07,-38.0345
6.21607e+07,-38.8806
6.22041e+07,-37.8419
6.22474e+07,-37.573
6.22908e+07,-38.1991
6.23341e+07,-37.9052
6.23775e+07,-40.0314
6.24208e+07,-36.1005
6.24642e+07,-36.5164
6.25075e+07,-35.7834
6.25509e+07,-36.3265
6.25942e+07,-36.7756
6.26375e+07,-37.1747
6.26809e+07,-37.8295
6.27242e+07,-35.9431
6.27676e+07,-37.7008
6.28109e+07,-36.7798
6.28543e+07,-38.4216
6.28976e+07,-37.1638
6.2941e+07,-37.4568
6.29843e+07,-37.5469
6.30277e+07,-38.1255
6.3071e+07,-37.6082
6.31144e+07,-37.7515
6.31577e+07,-36.9664
6.32011e+07,-37.8226
6.32444e+07,-35.3921
6.32878e+07,-35.6345
6.33311e+07,-35.4796
6.33745e+07,-35.3254
6.34178e+07,-36.5043
6.34612e+07,-35.8726
6.35045e+07,-36.8465
6.35478e+07,-36.4145
6.35912e+07,-37.6014
6.36345e+07,-38.253
6.36779e+07,-37.9824
6.37212e+07,-39.0362
6.37646e+07,-39.9604
6.38079e+07,-39.7069
6.38513e+07,-38.4071
6.38946e+07,-40.6982
6.3938e+07,-38.8849
6.39813e+07,-39.8235
6.40247e+07,-39.2826
6.4068e+07,-37.6404
6.41114e+07,-37.6053
6.41547e+07,-37.1629
6.41981e+07,-38.4326
6.42414e+07,-38.4502
6.42848e+07,-36.7782
6.43281e+07,-38.0227
6.43715e+07,-35.5974
6.44148e+07,-36.0365
6.44582e+07,-34.2551
6.45015e+07,-33.1586
6.45448e+07,-34.554
6.45882e+07,-33.6705
6.46315e+07,-34.0901
6.46749e+07,-34.4671
6.47182e+07,-37.5287
6.47616e+07,-32.9638
6.48049e+07,-36.0916
6.48483e+07,-37.1253
6.48916e+07,-35.0208
6.4935e+07,-34.5718
6.49783e+07,-35.6513
6.50217e+07,-36.0415
6.5065e+07,-36.6212
6.51084e+07,-36.8052
6.51517e+07,-37.1194
6.51951e+07,-37.2009
6.52384e+07,-35.9206
6.52818e+07,-35.1039
6.53251e+07,-37.2057
6.53685e+07,-36.6805
6.54118e+07,-37.7506
6.54552e+07,-38.3468
6.54985e+07,-36.8336
6.55418e+07,-35.7229
6.55852e+07,-35.2986
6.56285e+07,-34.1792
6.56719e+07,-31.9059
6.57152e+07,-31.4259
6.57586e+07,-30.3481
6.58019e+07,-32.7617
6.58453e+07,-30.5876
6.58886e+07,-33.0954
6.5932e+07,-33.8846
6.59753e+07,-36.6234
6.60187e+07,-38.1572
6.6062e+07,-37.9589
6.61054e+07,-38.8324
6.61487e+07,-36.6542
6.61921e+07,-39.6628
6.62354e+07,-35.3983
6.62788e+07,-35.2946
6.63221e+07,-34.667
6.63655e+07,-34.5602
6.64088e+07,-32.7493
6.64522e+07,-31.919
6.64955e+07,-33.0158
6.65388e+07,-29.5166
6.65822e+07,-32.5558
6.66255e+07,-31.9088
6.66689e+07,-35.3555
6.67122e+07,-31.0957
6.67556e+07,-31.0563
6.67989e+07,-30.079
6.68423e+07,-29.3739
6.68856e+07,-27.5467
6.6929e+07,-29.2526
6.69723e+07,-27.6955
6.70157e+07,-25.436
6.7059e+07,-25.8557
6.71024e+07,-25.4298
6.71457e+07,-25.0144
6.71891e+07,-26.464
6.72324e+07,-25.2345
6.72758e+07,-23.9015
6.73191e+07,-24.6732
6.73625e+07,-24.3732
6.74058e+07,-25.7786
6.74491e+07,-26.1665
6.74925e+07,-25.9298
6.75358e+07,-30.0072
6.75792e+07,-29.1558
6.76225e+07,-32.155
6.76659e+07,-33.5838
6.77092e+07,-36.07
6.77526e+07,-35.0408
6.77959e+07,-36.9509
6.78393e+07,-36.5871
6.78826e+07,-35.6711
6.7926e+07,-32.3355
6.79693e+07,-32.5295
6.80127e+07,-32.2173
6.8056e+07,-31.2302
6.80994e+07,-32.6483
6.81427e+07,-32.3627
6.81861e+07,-31.7579
6.82294e+07,-32.4839
6.82728e+07,-31.8639
6.83161e+07,-35.0995
6.83595e+07,-36.87
6.84028e+07,-38.504
6.84461e+07,-38.4031
6.84895e+07,-40.2554
6.85328e+07,-37.9241
6.85762e+07,-38.2915
6.86195e+07,-38.1528
6.86629e+07,-36.592
6.87062e+07,-32.786
6.87496e+07,-30.6758
6.87929e+07,-29.6179
6.88363e+07,-29.2023
6.88796e+07,-29.3683
6.8923e+07,-27.9436
6.89663e+07,-28.6774
6.90097e+07,-28.4879
6.9053e+07,-30.0457
6.90964e+07,-31.7252
6.91397e+07,-32.3028
6.91831e+07,-30.9427
6.92264e+07,-31.6135
6.92698e+07,-33.6302
6.93131e+07,-35.7211
6.93565e+07,-27.3042
6.93998e+07,-26.1352
6.94431e+07,-24.0935
6.94865e+07,-22.0206
6.95298e+07,-21.6875
6.95732e+07,-21.4196
6.96165e+07,-23.4937
6.96599e+07,-25.4333
6.97032e+07,-28.5086
6.97466e+07,-28.4342
6.97899e+07,-29.6775
6.98333e+07,-27.6815
6.98766e+07,-31.1174
6.992e+07,-30.1202
6.99633e+07,-32.5074
7.00067e+07,-38.0351
7.005e+07,-39.5337
7.00934e+07,-39.0438
7.01367e+07,-38.9899
7.01801e+07,-39.8898
7.02234e+07,-38.7746
7.02668e+07,-39.3865
7.03101e+07,-33.971
7.03535e+07,-33.207
7.03968e+07,-32.276
7.04401e+07,-31.2391
7.04835e+07,-28.7592
7.05268e+07,-19.9341
7.05702e+07,-19.7028
7.06135e+07,-17.2228
7.06569e+07,-15.4902
7.07002e+07,-15.8204
7.07436e+07,-15.3044
7.07869e+07,-14.445
7.08303e+07,-17.1331
7.08736e+07,-19.6388
7.0917e+07,-26.6801
7.09603e+07,-24.7833
7.10037e+07,-22.337
7.1047e+07,-20.9825
7.10904e+07,-21.2911
7.11337e+07,-19.4431
7.11771e+07,-21.6886
7.12204e+07,-24.4846
7.12638e+07,-22.4752
7.13071e+07,-27.473
7.13505e+07,-26.5159
7.13938e+07,-26.4522
7.14371e+07,-28.175
7.14805e+07,-32.2934
7.15238e+07,-31.0354
7.15672e+07,-33.2752
7.16105e+07,-37.3696
7.16539e+07,-37.1114
7.16972e+07,-38.4651
7.17406e+07,-27.2885
7.17839e+07,-22.1027
7.18273e+07,-21.9074
7.18706e+07,-21.333
7.1914e+07,-22.3257
7.19573e+07,-21.813
7.20007e+07,-23.3223
7.2044e+07,-29.5511
7.20874e+07,-29.2846
7.21307e+07,-31.441
7.21741e+07,-30.2953
7.22174e+07,-31.5541
7.22608e+07,-31.8639
7.23041e+07,-29.6813
7.23474e+07,-35.7169
7.23908e+07,-35.257
7.24341e+07,-35.3312
7.24775e+07,-34.0575
7.25208e+07,-28.2707
7.25642e+07,-19.2836
7.26075e+07,-19.6514
7.26509e+07,-17.6749
7.26942e+07,-16.9821
7.27376e+07,-18.464
7.27809e+07,-18.9989
7.28243e+07,-19.9821
7.28676e+07,-26.4728
7.2911e+07,-24.4763
7.29543e+07,-28.2072
7.29977e+07,-28.4919
7.3041e+07,-29.3421
7.30844e+07,-29.7399
7.31277e+07,-30.8608
7.31711e+07,-37.5025
7.32144e+07,-33.4024
7.32578e+07,-38.0657
7.33011e+07,-37.4465
7.33444e+07,-24.4853
7.33878e+07,-22.8618
7.34311e+07,-22.9429
7.34745e+07,-19.7957
7.35178e+07,-18.7267
7.35612e+07,-16.6579
7.36045e+07,-16.7879
7.36479e+07,-18.4122
7.36912e+07,-22.4406
7.37346e+07,-31.113
7.37779e+07,-30.9976
7.38213e+07,-34.6021
7.38646e+07,-34.1834
7.3908e+07,-33.4404
7.39513e+07,-34.3649
7.39947e+07,-34.1867
7.4038e+07,-34.0764
7.40814e+07,-33.352
7.41247e+07,-34.2813
7.41681e+07,-32.3064
7.42114e+07,-32.5121
7.42548e+07,-23.4766
7.42981e+07,-23.5451
7.43414e+07,-21.1094
7.43848e+07,-20.7506
7.44281e+07,-23.2575
7.44715e+07,-20.8876
7.45148e+07,-26.1303
7.45582e+07,-26.1619
7.46015e+07,-25.366
7.46449e+07,-27.3695
7.46882e+07,-30.0503
7.47316e+07,-28.9838
7.47749e+07,-34.7088
7.48183e+07,-33.9337
7.48616e+07,-36.7707
7.4905e+07,-36.7218
7.49483e+07,-26.6216
7.49917e+07,-22.4558
7.5035e+07,-20.3403
7.50784e+07,-18.6137
7.51217e+07,-19.6223
7.51651e+07,-19.5656
7.52084e+07,-19.5722
7.52518e+07,-24.4704
7.52951e+07,-29.1059
7.53384e+07,-29.0422
7.53818e+07,-30.7511
7.54251e+07,-30.6089
7.54685e+07,-35.3289
7.55118e+07,-33.3844
7.55552e+07,-36.2464
7.55985e+07,-36.9467
7.56419e+07,-37.6001
7.56852e+07,-35.3533
7.57286e+07,-30.8276
7.57719e+07,-26.9448
7.58153e+07,-24.2443
7.58586e+07,-21.8935
7.5902e+07,-21.7903
7.59453e+07,-20.2873
7.59887e+07,-20.9268
7.6032e+07,-22.3012
7.60754e+07,-22.1411
7.61187e+07,-26.2599
7.61621e+07,-29.5088
7.62054e+07,-28.663
7.62487e+07,-32.1038
7.62921e+07,-33.1017
7.63354e+07,-34.3917
7.63788e+07,-38.04
7.64221e+07,-37.1594
7.64655e+07,-35.3532
7.65088e+07,-27.5818
7.65522e+07,-24.6487
7.65955e+07,-17.5066
7.66389e+07,-17.4799
7.66822e+07,-16.3006
7.67256e+07,-16.2634
7.67689e+07,-17.9148
7.68123e+07,-18.9134
7.68556e+07,-19.005
7.6899e+07,-16.8645
7.69423e+07,-30.0181
7.69857e+07,-29.9507
7.7029e+07,-29.1082
7.70724e+07,-31.9991
7.71157e+07,-34.6965
7.71591e+07,-34.6464
7.72024e+07,-33.5724
7.72457e+07,-35.8828
7.72891e+07,-35.66
7.73324e+07,-34.4487
7.73758e+07,-33.7466
7.74191e+07,-27.712
7.74625e+07,-23.386
7.75058e+07,-22.4451
7.75492e+07,-22.0358
7.75925e+07,-21.9042
7.76359e+07,-22.6993
7.76792e+07,-25.9281
7.77226e+07,-30.372
7.77659e+07,-31.3057
7.78093e+07,-23.3578
7.78526e+07,-22.0009
7.7896e+07,-21.65
7.79393e+07,-21.4072
7.79827e+07,-22.7743
7.8026e+07,-24.4835
7.80694e+07,-32.259
7.81127e+07,-34.344
7.81561e+07,-29.0656
7.81994e+07,-21.1346
7.82427e+07,-13.1994
7.82861e+07,-13.6975
7.83294e+07,-14.3262
7.83728e+07,-13.2497
7.84161e+07,-16.5921
7.84595e+07,-19.4194
7.85028e+07,-23.6418
7.85462e+07,-23.6239
7.85895e+07,-24.4297
7.86329e+07,-25.8401
7.86762e+07,-25.7651
7.87196e+07,-28.6474
7.87629e+07,-31.5789
7.88063e+07,-32.4559
7.88496e+07,-35.6535
7.8893e+07,-34.0235
7.89363e+07,-26.2301
7.89797e+07,-20.4034
7.9023e+07,-19.2463
7.90664e+07,-18.4559
7.91097e+07,-18.1365
7.91531e+07,-20.1886
7.91964e+07,-21.2912
7.92397e+07,-20.739
7.92831e+07,-26.9532
7.93264e+07,-26.3471
7.93698e+07,-26.5584
7.94131e+07,-28.6416
7.94565e+07,-29.0812
7.94998e+07,-27.0593
7.95432e+07,-28.3995
7.95865e+07,-28.6527
7.96299e+07,-29.5215
7.96732e+07,-37.3106
7.97166e+07,-22.7202
7.97599e+07,-17.923
7.98033e+07,-18.4022
7.98466e+07,-18.909
7.989e+07,-17.5595
7.99333e+07,-18.5326
7.99767e+07,-19.4494
8.002e+07,-22.9505
8.00634e+07,-26.6088
8.01067e+07,-32.149
8.01501e+07,-32.7464
8.01934e+07,-33.3714
8.02367e+07,-33.3912
8.02801e+07,-34.5613
8.03234e+07,-34.7963
8.03668e+07,-35.1144
8.04101e+07,-34.5515
8.04535e+07,-35.5611
8.04968e+07,-34.205
8.05402e+07,-24.5459
8.05835e+07,-21.3727
8.06269e+07,-16.6416
8.06702e+07,-18.2858
8.07136e+07,-17.285
8.07569e+07,-18.2105
8.08003e+07,-19.1635
8.08436e+07,-21.0852
8.0887e+07,-21.7659
8.09303e+07,-21.8292
8.09737e+07,-21.7543
8.1017e+07,-21.5622
8.10604e+07,-23.1625
8.11037e+07,-22.1075
8.1147e+07,-25.0967
8.11904e+07,-28.8557
8.12337e+07,-33.6858
8.12771e+07,-35.9716
8.13204e+07,-35.0151
8.13638e+07,-27.6872
8.14071e+07,-25.4324
8.14505e+07,-20.0839
8.14938e+07,-20.9638
8.15372e+07,-18.9809
8.15805e+07,-18.5371
8.16239e+07,-19.6382
8.16672e+07,-23.2064
8.17106e+07,-26.4826
8.17539e+07,-26.5828
8.17973e+07,-26.0914
8.18406e+07,-26.6573
8.1884e+07,-26.298
8.19273e+07,-26.4252
8.19707e+07,-28.7477
8.2014e+07,-32.5384
8.20574e+07,-34.3219
8.21007e+07,-32.5096
8.2144e+07,-21.398
8.21874e+07,-16.6886
8.22307e+07,-11.9565
8.22741e+07,-13.2085
8.23174e+07,-12.357
8.23608e+07,-11.1034
8.24041e+07,-11.1446
8.24475e+07,-13.6116
8.24908e+07,-16.6316
8.25342e+07,-26.3087
8.25775e+07,-30.3141
8.26209e+07,-36.1031
8.26642e+07,-36.8623
8.27076e+07,-36.1097
8.27509e+07,-35.22
8.27943e+07,-35.2858
8.28376e+07,-31.5205
8.2881e+07,-31.0038
8.29243e+07,-25.0484
8.29677e+07,-21.4843
8.3011e+07,-15.2416
8.30544e+07,-16.3212
8.30977e+07,-16.6296
8.3141e+07,-16.5481
8.31844e+07,-16.7801
8.32277e+07,-18.0113
8.32711e+07,-25.1113
8.33144e+07,-30.1605
8.33578e+07,-36.7056
8.34011e+07,-39.7729
8.34445e+07,-38.9497
8.34878e+07,-37.4446
8.35312e+07,-35.7641
8.35745e+07,-37.331
8.36179e+07,-36.7684
8.36612e+07,-35.7245
8.37046e+07,-33.8579
8.37479e+07,-23.4496
8.37913e+07,-29.9597
8.38346e+07,-22.5933
8.3878e+07,-21.4237
8.39213e+07,-23.0679
8.39647e+07,-22.1669
8.4008e+07,-23.6726
8.40514e+07,-27.2272
8.40947e+07,-28.4525
8.4138e+07,-34.0519
8.41814e+07,-35.968
8.42247e+07,-39.3642
8.42681e+07,-39.2457
8.43114e+07,-40.5195
8.43548e+07,-36.8526
8.43981e+07,-30.8816
8.44415e+07,-29.1987
8.44848e+07,-21.7594
8.45282e+07,-10.1115
8.45715e+07,-9.87877
8.46149e+07,-5.43986
8.46582e+07,-4.4195
8.47016e+07,-3.29381
8.47449e+07,-3.26901
8.47883e+07,-4.18454
8.48316e+07,-5.41351
8.4875e+07,-5.91323
8.49183e+07,-15.4385
8.49617e+07,-20.3385
8.5005e+07,-22.0985
8.50483e+07,-27.581
8.50917e+07,-39.993
8.5135e+07,-38.4247
8.51784e+07,-40.712
8.52217e+07,-39.266
8.52651e+07,-33.6163
8.53084e+07,-32.4632
8.53518e+07,-17.073
8.53951e+07,-15.2222
8.54385e+07,-13.6924
8.54818e+07,-12.8529
8.55252e+07,-12.471
8.55685e+07,-13.2171
8.56119e+07,-14.1891
8.56552e+07,-15.9384
8.56986e+07,-15.5846
8.57419e+07,-29.7047
8.57853e+07,-31.1692
8.58286e+07,-31.3396
8.5872e+07,-38.4882
8.59153e+07,-37.8841
8.59587e+07,-37.9456
8.6002e+07,-34.8905
8.60453e+07,-36.1689
8.60887e+07,-32.4193
8.6132e+07,-33.4885
8.61754e+07,-32.6605
8.62187e+07,-34.6654
8.62621e+07,-36.5215
8.63054e+07,-37.8079
8.63488e+07,-38.5953
8.63921e+07,-31.2712
8.64355e+07,-27.8051
8.64788e+07,-27.7884
8.65222e+07,-26.698
8.65655e+07,-26.1878
8.66089e+07,-26.8792
8.66522e+07,-29.0662
8.66956e+07,-35.1354
8.67389e+07,-36.851
8.67823e+07,-28.3672
8.68256e+07,-30.8799
8.6869e+07,-28.4438
8.69123e+07,-28.2638
8.69557e+07,-28.1245
8.6999e+07,-28.7356
8.70423e+07,-33.1946
8.70857e+07,-39.4326
8.7129e+07,-40.2217
8.71724e+07,-39.9022
8.72157e+07,-40.4512
8.72591e+07,-40.2177
8.73024e+07,-40.1666
8.73458e+07,-40.1701
8.73891e+07,-38.77
8.74325e+07,-37.3282
8.74758e+07,-35.651
8.75192e+07,-34.7919
8.75625e+07,-34.5525
8.76059e+07,-33.5808
8.76492e+07,-30.3139
8.76926e+07,-24.4757
8.77359e+07,-22.0759
8.77793e+07,-23.6187
8.78226e+07,-28.174
8.7866e+07,-38.1078
8.79093e+07,-37.5767
8.79527e+07,-37.8338
8.7996e+07,-36.519
8.80393e+07,-36.3159
8.80827e+07,-33.122
8.8126e+07,-31.4283
8.81694e+07,-32.547
8.82127e+07,-36.5735
8.82561e+07,-38.7152
8.82994e+07,-37.1135
8.83428e+07,-30.7777
8.83861e+07,-20.2538
8.84295e+07,3.63433
8.84728e+07,16.8554
8.85162e+07,17.2992
8.85595e+07,17.4044
8.86029e+07,10.778
8.86462e+07,-9.22769
8.86896e+07,-25.9052
8.87329e+07,-35.9576
8.87763e+07,-36.0928
8.88196e+07,-35.6386
8.8863e+07,-34.0603
8.89063e+07,-31.9449
8.89496e+07,-31.7633
8.8993e+07,-35.6598
8.90363e+07,-35.8765
8.90797e+07,-40.22
8.9123e+07,-31.3594
8.91664e+07,-27.5007
8.92097e+07,-24.3718
8.92531e+07,-23.7043
8.92964e+07,-21.5797
8.93398e+07,-21.6367
8.93831e+07,-22.9876
8.94265e+07,-26.7495
8.94698e+07,-34.4243
8.95132e+07,-35.5039
8.95565e+07,-36.6035
8.95999e+07,-36.7714
8.96432e+07,-41.3621
8.96866e+07,-41.2789
8.97299e+07,-38.9258
8.97733e+07,-40.8199
8.98166e+07,-42.6209
8.986e+07,-43.0966
8.99033e+07,-40.8156
8.99466e+07,-41.8327
8.999e+07,-41.6108
9.00333e+07,-28.8094
9.00767e+07,-26.8632
9.012e+07,-26.2751
9.01634e+07,-26.2405
9.02067e+07,-28.5274
9.02501e+07,-41.4526
9.02934e+07,-42.5571
9.03368e+07,-43.2546
9.03801e+07,-43.2701
9.04235e+07,-41.4227
9.04668e+07,-24.9016
9.05102e+07,-24.6116
9.05535e+07,-24.7361
9.05969e+07,-26.8116
9.06402e+07,-43.4905
9.06836e+07,-42.1491
9.07269e+07,-38.4299
9.07703e+07,-34.5893
9.08136e+07,-32.43
9.0857e+07,-30.7092
9.09003e+07,-30.6117
9.09436e+07,-29.61
9.0987e+07,-30.5825
9.10303e+07,-31.6246
9.10737e+07,-36.2216
9.1117e+07,-36.3284
9.11604e+07,-40.6607
9.12037e+07,-43.2782
9.12471e+07,-43.2107
9.12904e+07,-42.5687
9.13338e+07,-26.1942
9.13771e+07,-28.7939
9.14205e+07,-40.3871
9.14638e+07,-15.6995
9.15072e+07,-11.957
9.15505e+07,-12.7272
9.15939e+07,-18.5269
9.16372e+07,-32.7639
9.16806e+07,-31.0924
9.17239e+07,-30.175
9.17673e+07,-32.3426
9.18106e+07,-30.8138
9.1854e+07,-37.9743
9.18973e+07,-41.1987
9.19406e+07,-41.2437
9.1984e+07,-43.4761
9.20273e+07,-44.0029
9.20707e+07,-44.1742
9.2114e+07,-21.7818
9.21574e+07,-21.1172
9.22007e+07,-21.4785
9.22441e+07,-5.3123
9.22874e+07,-5.50908
9.23308e+07,-5.2762
9.23741e+07,-5.27287
9.24175e+07,-10.4573
9.24608e+07,-21.3621
9.25042e+07,-20.2725
9.25475e+07,-29.8107
9.25909e+07,-34.9377
9.26342e+07,-36.9998
9.26776e+07,-37.1552
9.27209e+07,-40.6756
9.27643e+07,-42.1846
9.28076e+07,-43.684
9.2851e+07,-41.9443
9.28943e+07,-40.5525
9.29376e+07,-35.6987
9.2981e+07,-36.6302
9.30243e+07,-41.0292
9.30677e+07,-26.9824
9.3111e+07,-23.1125
9.31544e+07,-23.2655
9.31977e+07,-27.8117
9.32411e+07,-35.6177
9.32844e+07,-34.6053
9.33278e+07,-35.652
9.33711e+07,-36.9172
9.34145e+07,-37.9389
9.34578e+07,-38.9407
9.35012e+07,-38.4431
9.35445e+07,-38.9121
9.35879e+07,-33.2237
9.36312e+07,-43.0912
9.36746e+07,-36.3096
9.37179e+07,-32.8048
9.37613e+07,-34.0179
9.38046e+07,-33.0948
9.38479e+07,-23.2813
9.38913e+07,-17.3868
9.39346e+07,-16.6217
9.3978e+07,-14.7592
9.40213e+07,-19.137
9.40647e+07,-29.6771
9.4108e+07,-30.3829
9.41514e+07,-37.5566
9.41947e+07,-37.8303
9.42381e+07,-39.0403
9.42814e+07,-35.5461
9.43248e+07,-32.9748
9.43681e+07,-34.3676
9.44115e+07,-41.5899
9.44548e+07,-40.9971
9.44982e+07,-38.6855
9.45415e+07,-30.7456
9.45849e+07,-28.9195
9.46282e+07,-12.7621
9.46716e+07,-11.195
9.47149e+07,-9.40945
9.47583e+07,-10.4928
9.48016e+07,-14.9421
9.48449e+07,-30.3349
9.48883e+07,-30.309
9.49316e+07,-30.993
9.4975e+07,-34.1047
9.50183e+07,-36.1371
9.50617e+07,-31.2354
9.5105e+07,-28.7933
9.51484e+07,-28.6731
9.51917e+07,-39.0217
9.52351e+07,-35.5157
9.52784e+07,-34.6807
9.53218e+07,-32.8598
9.53651e+07,-33.6861
9.54085e+07,-35.1786
9.54518e+07,-17.5592
9.54952e+07,-16.323
9.55385e+07,-17.3017
9.55819e+07,-24.7895
9.56252e+07,-40.8075
9.56686e+07,-36.5551
9.57119e+07,-36.9584
9.57553e+07,-37.1621
9.57986e+07,-39.6556
9.58419e+07,-40.9055
9.58853e+07,-37.3598
9.59286e+07,-36.5833
9.5972e+07,-34.4835
9.60153e+07,-32.9653
9.60587e+07,-31.6871
9.6102e+07,-33.8956
9.61454e+07,-28.6239
9.61887e+07,-29.617
9.62321e+07,-19.1425
9.62754e+07,-17.4526
9.63188e+07,-16.4906
9.63621e+07,-18.7299
9.64055e+07,-17.8186
9.64488e+07,-36.3182
9.64922e+07,-33.3359
9.65355e+07,-32.7147
9.65789e+07,-35.8378
9.66222e+07,-38.2163
9.66656e+07,-35.5288
9.67089e+07,-33.5998
9.67523e+07,-34.2903
9.67956e+07,-35.953
9.68389e+07,-39.9603
9.68823e+07,-38.8057
9.69256e+07,-34.3195
9.6969e+07,-34.3175
9.70123e+07,-37.756
9.70557e+07,-26.6035
9.7099e+07,-21.92
9.71424e+07,-17.8202
9.71857e+07,-17.4237
9.72291e+07,-31.031
9.72724e+07,-34.2981
9.73158e+07,-34.3296
9.73591e+07,-35.8755
9.74025e+07,-38.0555
9.74458e+07,-30.697
9.74892e+07,-28.7955
9.75325e+07,-28.9855
9.75759e+07,-29.789
9.76192e+07,-35.8682
9.76626e+07,-33.4295
9.77059e+07,-31.6688
9.77492e+07,-32.719
9.77926e+07,-30.6716
9.78359e+07,-33.5574
9.78793e+07,-25.2552
9.79226e+07,-21.1435
9.7966e+07,-19.6108
9.80093e+07,-29.9639
9.80527e+07,-32.6627
9.8096e+07,-32.8914
9.81394e+07,-32.2572
9.81827e+07,-34.5687
9.82261e+07,-36.2596
9.82694e+07,-39.9634
9.83128e+07,-40.473
9.83561e+07,-36.9687
9.83995e+07,-33.7488
9.84428e+07,-33.184
9.84862e+07,-30.2546
9.85295e+07,-31.1415
9.85729e+07,-30.594
9.86162e+07,-34.3726
9.86596e+07,-39.5655
9.87029e+07,-13.4203
9.87462e+07,-14.0811
9.87896e+07,-39.9584
9.88329e+07,-36.8421
9.88763e+07,-33.0677
9.89196e+07,-33.6572
9.8963e+07,-38.3773
9.90063e+07,-39.5306
9.90497e+07,-42.6145
9.9093e+07,-34.3956
9.91364e+07,-21.7203
9.91797e+07,-41.2277
9.92231e+07,-38.3262
9.92664e+07,-37.7387
9.93098e+07,-36.737
9.93531e+07,-37.4217
9.93965e+07,-36.564
9.94398e+07,-24.4866
9.94832e+07,-20.818
9.95265e+07,-22.3246
9.95699e+07,-26.7624
9.96132e+07,-32.503
9.96566e+07,-35.1136
9.96999e+07,-36.1011
9.97432e+07,-36.638
9.97866e+07,-39.0955
9.98299e+07,-40.1572
9.98733e+07,-42.0644
9.99166e+07,-37.6273
9.996e+07,-40.6169
1.00003e+08,-37.5835
1.00047e+08,-37.2486
1.0009e+08,-36.1459
1.00133e+08,-34.6247
1.00177e+08,-34.6613
1.0022e+08,-31.0087
1.00263e+08,-25.4493
1.00307e+08,-14.7731
1.0035e+08,-15.6763
1.00393e+08,-15.3318
1.00437e+08,-33.5349
1.0048e+08,-39.5639
1.00524e+08,-39.0324
1.00567e+08,-39.0323
1.0061e+08,-40.8764
1.00654e+08,-41.6155
1.00697e+08,-39.2
1.0074e+08,-38.665
1.00784e+08,-42.1852
1.00827e+08,-41.9088
1.0087e+08,-38.9422
1.00914e+08,-34.9285
1.00957e+08,-32.7256
1.01e+08,-32.5022
1.01044e+08,-34.8033
1.01087e+08,-21.6554
1.0113e+08,-21.1873
1.01174e+08,-19.8879
1.01217e+08,-27.5394
1.0126e+08,-36.2349
1.01304e+08,-37.7606
1.01347e+08,-38.338
1.0139e+08,-39.8345
1.01434e+08,-42.1467
1.01477e+08,-42.5596
1.01521e+08,-40.7286
1.01564e+08,-41.2789
1.01607e+08,-42.137
1.01651e+08,-40.3548
1.01694e+08,-36.5769
1.01737e+08,-33.926
1.01781e+08,-33.3878
1.01824e+08,-34.184
1.01867e+08,-18.634
1.01911e+08,-17.1868
1.01954e+08,-17.5887
1.01997e+08,-17.5975
1.02041e+08,-35.5202
1.02084e+08,-35.3549
1.02127e+08,-36.8728
1.02171e+08,-38.4909
1.02214e+08,-42.4571
1.02257e+08,-37.5529
1.02301e+08,-36.9325
1.02344e+08,-37.0489
1.02387e+08,-36.9373
1.02431e+08,-33.1063
1.02474e+08,-33.15
1.02518e+08,-31.6103
1.02561e+08,-31.731
1.02604e+08,-34.7245
1.02648e+08,-24.8108
1.02691e+08,-21.7897
1.02734e+08,-23.5879
1.02778e+08,-27.0815
1.02821e+08,-40.2958
1.02864e+08,-40.5476
1.02908e+08,-38.0716
1.02951e+08,-37.6379
1.02994e+08,-39.4218
1.03038e+08,-40.2325
1.03081e+08,-40.7868
1.03124e+08,-40.3396
1.03168e+08,-41.102
1.03211e+08,-41.544
1.03254e+08,-38.7537
1.03298e+08,-36.372
1.03341e+08,-33.8684
1.03384e+08,-34.5389
1.03428e+08,-26.9241
1.03471e+08,-18.0317
1.03515e+08,-17.4308
1.03558e+08,-21.449
1.03601e+08,-19.1107
1.03645e+08,-37.03
1.03688e+08,-37.3196
1.03731e+08,-35.0453
1.03775e+08,-37.9354
1.03818e+08,-40.234
1.03861e+08,-42.3393
1.03905e+08,-41.838
1.03948e+08,-41.6236
1.03991e+08,-37.057
1.04035e+08,-35.62
1.04078e+08,-33.6549
1.04121e+08,-33.7433
1.04165e+08,-32.2507
1.04208e+08,-35.0319
1.04251e+08,-21.2652
1.04295e+08,-19.5669
1.04338e+08,-18.2473
1.04381e+08,-19.2658
1.04425e+08,-22.9487
1.04468e+08,-33.2938
1.04512e+08,-32.3665
1.04555e+08,-40.8852
1.04598e+08,-41.0171
1.04642e+08,-42.0602
1.04685e+08,-41.9159
1.04728e+08,-38.0436
1.04772e+08,-41.3617
1.04815e+08,-42.7251
1.04858e+08,-37.8761
1.04902e+08,-34.6404
1.04945e+08,-33.5445
1.04988e+08,-36.8374
1.05032e+08,-32.0351
1.05075e+08,-24.3749
1.05118e+08,-21.855
1.05162e+08,-21.4065
1.05205e+08,-21.8801
1.05248e+08,-41.672
1.05292e+08,-41.092
1.05335e+08,-41.4444
1.05378e+08,-42.2883
1.05422e+08,-40.4268
1.05465e+08,-39.2325
1.05509e+08,-37.5034
1.05552e+08,-38.0643
1.05595e+08,-36.9233
1.05639e+08,-38.0899
1.05682e+08,-36.4103
1.05725e+08,-33.3835
1.05769e+08,-33.4878
1.05812e+08,-33.6139
1.05855e+08,-19.8084
1.05899e+08,-19.8564
1.05942e+08,-21.0436
1.05985e+08,-20.973
1.06029e+08,-39.5723
1.06072e+08,-37.3632
1.06115e+08,-32.0077
1.06159e+08,-29.72
1.06202e+08,-31.3316
1.06245e+08,-15.5559
1.06289e+08,-15.2884
1.06332e+08,-15.6527
1.06375e+08,-15.9996
1.06419e+08,-16.6843
1.06462e+08,-29.8452
1.06506e+08,-30.7629
1.06549e+08,-32.4897
1.06592e+08,-38.0872
1.06636e+08,-38.3204
1.06679e+08,-38.0268
1.06722e+08,-38.2906
1.06766e+08,-38.2523
1.06809e+08,-39.6352
1.06852e+08,-36.5867
1.06896e+08,-39.2713
1.06939e+08,-38.6202
1.06982e+08,-39.3806
1.07026e+08,-38.1524
1.07069e+08,-38.5467
1.07112e+08,-37.3206
1.07156e+08,-37.7803
1.07199e+08,-36.8587
1.07242e+08,-33.3509
1.07286e+08,-34.2258
1.07329e+08,-32.6877
1.07372e+08,-32.4468
1.07416e+08,-35.4011
1.07459e+08,-18.9458
1.07503e+08,-18.0835
1.07546e+08,-21.5302
1.07589e+08,-21.9854
1.07633e+08,-36.2358
1.07676e+08,-39.2362
1.07719e+08,-38.4604
1.07763e+08,-38.6547
1.07806e+08,-39.3118
1.07849e+08,-38.7099
1.07893e+08,-30.3681
1.07936e+08,-30.3137
1.07979e+08,-29.2542
1.08023e+08,-35.7971
1.08066e+08,-33.8835
1.08109e+08,-33.7969
1.08153e+08,-33.4947
1.08196e+08,-33.476
1.08239e+08,-36.4889
1.08283e+08,-39.4205
1.08326e+08,-36.7217
1.08369e+08,-37.9935
1.08413e+08,-40.4373
1.08456e+08,-36.9431
1.08499e+08,-39.2077
1.08543e+08,-38.1831
1.08586e+08,-38.3623
1.0863e+08,-38.3237
1.08673e+08,-39.7547
1.08716e+08,-39.426
1.0876e+08,-38.9298
1.08803e+08,-38.0868
1.08846e+08,-37.1903
1.0889e+08,-35.8257
1.08933e+08,-36.0117
1.08976e+08,-35.7305
1.0902e+08,-37.2419
1.09063e+08,-36.8911
1.09106e+08,-38.3877
1.0915e+08,-39.5841
1.09193e+08,-37.6725
1.09236e+08,-39.1893
1.0928e+08,-37.4554
1.09323e+08,-37.8946
1.09366e+08,-38.4228
1.0941e+08,-38.8868
1.09453e+08,-40.9074
1.09496e+08,-40.3255
1.0954e+08,-39.2015
1.09583e+08,-38.9021
1.09627e+08,-38.0414
1.0967e+08,-36.9246
1.09713e+08,-35.8768
1.09757e+08,-36.9926
1.098e+08,-38.8574
1.09843e+08,-38.4455
1.09887e+08,-36.3019
1.0993e+08,-38.8444
1.09973e+08,-37.5585
1.10017e+08,-37.6839
1.1006e+08,-34.2384
1.10103e+08,-32.8532
1.10147e+08,-31.3219
1.1019e+08,-33.956
1.10233e+08,-32.913
1.10277e+08,-33.2661
1.1032e+08,-32.859
1.10363e+08,-33.526
1.10407e+08,-34.4244
1.1045e+08,-33.577
1.10493e+08,-37.0083
1.10537e+08,-36.1697
1.1058e+08,-36.0846
1.10624e+08,-37.9958
1.10667e+08,-37.543
1.1071e+08,-37.5564
1.10754e+08,-36.2667
1.10797e+08,-35.649
1.1084e+08,-36.0268
1.10884e+08,-36.3532
1.10927e+08,-36.5415
1.1097e+08,-35.3365
1.11014e+08,-37.6867
1.11057e+08,-38.6886
1.111e+08,-38.9232
1.11144e+08,-38.3999
1.11187e+08,-36.4783
1.1123e+08,-36.5576
1.11274e+08,-35.8524
1.11317e+08,-36.1491
1.1136e+08,-36.9325
1.11404e+08,-38.562
1.11447e+08,-38.8528
1.1149e+08,-39.4452
1.11534e+08,-37.8969
1.11577e+08,-39.6082
1.11621e+08,-38.6747
1.11664e+08,-39.4447
1.11707e+08,-38.6192
1.11751e+08,-38.9564
1.11794e+08,-37.4698
1.11837e+08,-38.3325
1.11881e+08,-39.7807
1.11924e+08,-38.8263
1.11967e+08,-40.0256
1.12011e+08,-40.6065
1.12054e+08,-38.264
1.12097e+08,-39.0612
1.12141e+08,-38.6517
1.12184e+08,-39.1484
1.12227e+08,-39.8219
1.12271e+08,-40.0319
1.12314e+08,-39.2036
1.12357e+08,-37.5899
1.12401e+08,-39.2428
1.12444e+08,-37.813
1.12487e+08,-37.3453
1.12531e+08,-37.928
1.12574e+08,-38.3009
1.12618e+08,-37.5295
1.12661e+08,-39.4926
1.12704e+08,-38.8273
1.12748e+08,-39.0433
1.12791e+08,-38.8208
1.12834e+08,-40.1137
1.12878e+08,-38.7986
1.12921e+08,-38.5001
1.12964e+08,-37.9183
1.13008e+08,-38.2378
1.13051e+08,-39.133
1.13094e+08,-40.2081
1.13138e+08,-39.6279
1.13181e+08,-37.7331
1.13224e+08,-39.5454
1.13268e+08,-38.5812
1.13311e+08,-39.2997
1.13354e+08,-40.2591
1.13398e+08,-38.7753
1.13441e+08,-39.2267
1.13484e+08,-39.9317
1.13528e+08,-38.803
1.13571e+08,-38.5681
1.13615e+08,-39.2197
1.13658e+08,-36.8108
1.13701e+08,-38.2418
1.13745e+08,-37.5155
1.13788e+08,-37.0835
1.13831e+08,-39.486
1.13875e+08,-38.1566
1.13918e+08,-37.6758
1.13961e+08,-38.6374
1.14005e+08,-39.4787
1.14048e+08,-39.101
1.14091e+08,-38.2642
1.14135e+08,-37.4714
1.14178e+08,-38.68
1.14221e+08,-38.3288
1.14265e+08,-38.2343
1.14308e+08,-38.9048
1.14351e+08,-40.1204
1.14395e+08,-39.6901
1.14438e+08,-39.9184
1.14481e+08,-39.5147
1.14525e+08,-39.721
1.14568e+08,-38.3725
1.14612e+08,-37.4593
1.14655e+08,-39.5859
1.14698e+08,-41.2175
1.14742e+08,-40.0287
1.14785e+08,-40.7817
1.14828e+08,-40.7306
1.14872e+08,-39.8286
1.14915e+08,-39.1051
1.14958e+08,-38.3357
1.15002e+08,-39.2487
1.15045e+08,-40.0785
1.15088e+08,-40.2099
1.15132e+08,-39.3345
1.15175e+08,-38.8361
1.15218e+08,-38.9915
1.15262e+08,-37.42
1.15305e+08,-36.7664
1.15348e+08,-38.94
1.15392e+08,-38.2901
1.15435e+08,-38.8259
1.15478e+08,-39.2441
1.15522e+08,-38.667
1.15565e+08,-40.5889
1.15609e+08,-40.0335
1.15652e+08,-39.1714
1.15695e+08,-39.7386
1.15739e+08,-39.9971
1.15782e+08,-32.0655
1.15825e+08,-32.148
1.15869e+08,-31.6994
1.15912e+08,-33.7331
1.15955e+08,-39.0989
1.15999e+08,-37.2591
1.16042e+08,-38.0609
1.16085e+08,-36.8339
1.16129e+08,-36.5924
1.16172e+08,-38.0836
1.16215e+08,-37.6447
1.16259e+08,-36.9923
1.16302e+08,-38.9565
1.16345e+08,-38.6647
1.16389e+08,-40.575
1.16432e+08,-40.1401
1.16475e+08,-38.9242
1.16519e+08,-40.0201
1.16562e+08,-38.7915
1.16606e+08,-37.7235
1.16649e+08,-39.8272
1.16692e+08,-40.4293
1.16736e+08,-39.4914
1.16779e+08,-40.4442
1.16822e+08,-40.8709
1.16866e+08,-38.722
1.16909e+08,-38.825
1.16952e+08,-37.6922
1.16996e+08,-37.6645
1.17039e+08,-38.3418
1.17082e+08,-38.2618
1.17126e+08,-37.256
1.17169e+08,-37.327
1.17212e+08,-39.3521
1.17256e+08,-38.6683
1.17299e+08,-38.1878
1.17342e+08,-38.2053
1.17386e+08,-38.2875
1.17429e+08,-37.9427
1.17472e+08,-39.5541
1.17516e+08,-38.9181
1.17559e+08,-39.8671
1.17603e+08,-39.6603
1.17646e+08,-38.905
1.17689e+08,-38.1054
1.17733e+08,-37.6295
1.17776e+08,-37.8429
1.17819e+08,-38.5441
1.17863e+08,-38.8822
1.17906e+08,-38.1395
1.17949e+08,-39.1031
1.17993e+08,-38.5864
1.18036e+08,-38.9644
1.18079e+08,-38.5373
1.18123e+08,-39.8974
1.18166e+08,-39.6242
1.18209e+08,-39.2266
1.18253e+08,-39.4906
1.18296e+08,-38.046
1.18339e+08,-38.1441
1.18383e+08,-37.1119
1.18426e+08,-37.4379
1.18469e+08,-39.0241
1.18513e+08,-38.4725
1.18556e+08,-37.8015
1.186e+08,-38.5877
1.18643e+08,-39.209
1.18686e+08,-40.4162
1.1873e+08,-37.7121
1.18773e+08,-37.3623
1.18816e+08,-39.5264
1.1886e+08,-38.2657
1.18903e+08,-37.5989
1.18946e+08,-38.6236
1.1899e+08,-37.8171
1.19033e+08,-37.5224
1.19076e+08,-38.9392
1.1912e+08,-36.7881
1.19163e+08,-37.5059
1.19206e+08,-38.4284
1.1925e+08,-39.2171
1.19293e+08,-38.9993
1.19336e+08,-38.3294
1.1938e+08,-39.028
1.19423e+08,-40.6206
1.19466e+08,-40.3239
1.1951e+08,-40.5587
1.19553e+08,-39.4531
1.19597e+08,-41.2828
1.1964e+08,-40.7211
1.19683e+08,-39.1667
1.19727e+08,-38.6491
1.1977e+08,-37.4584
1.19813e+08,-37.3461
1.19857e+08,-37.434
1.199e+08,-36.5916
1.19943e+08,-36.7535
1.19987e+08,-36.6377
1.2003e+08,-38.0153
1.20073e+08,-37.7778
1.20117e+08,-37.4011
1.2016e+08,-38.5255
1.20203e+08,-39.2145
1.20247e+08,-39.6081
1.2029e+08,-38.8692
1.20333e+08,-40.0673
1.20377e+08,-39.2437
1.2042e+08,-39.8804
1.20463e+08,-40.2282
1.20507e+08,-39.8944
1.2055e+08,-41.009
1.20594e+08,-40.7106
1.20637e+08,-40.8325
1.2068e+08,-41.2798
1.20724e+08,-39.4498
1.20767e+08,-40.1208
1.2081e+08,-38.7359
1.20854e+08,-38.8644
1.20897e+08,-40.1864
1.2094e+08,-38.7667
1.20984e+08,-38.751
1.21027e+08,-38.9465
1.2107e+08,-38.3723
1.21114e+08,-38.5532
1.21157e+08,-37.1768
1.212e+08,-37.9322
1.21244e+08,-38.0148
1.21287e+08,-38.2001
1.2133e+08,-38.3477
1.21374e+08,-39.4042
1.21417e+08,-40.2403
1.2146e+08,-40.492
1.21504e+08,-40.7905
1.21547e+08,-39.6148
1.21591e+08,-41.0955
1.21634e+08,-40.8099
1.21677e+08,-39.8026
1.21721e+08,-39.6489
1.21764e+08,-39.8838
1.21807e+08,-40.0887
1.21851e+08,-40.3322
1.21894e+08,-38.6338
1.21937e+08,-39.8655
1.21981e+08,-39.7596
1.22024e+08,-40.6482
1.22067e+08,-40.1281
1.22111e+08,-38.4897
1.22154e+08,-39.524
1.22197e+08,-39.582
1.22241e+08,-39.6891
1.22284e+08,-40.1752
1.22327e+08,-39.1104
1.22371e+08,-40.3984
1.22414e+08,-39.3912
1.22457e+08,-39.6364
1.22501e+08,-40.2819
1.22544e+08,-40.1598
1.22588e+08,-40.4622
1.22631e+08,-39.4648
1.22674e+08,-39.3804
1.22718e+08,-38.9994
1.22761e+08,-38.7899
1.22804e+08,-39.6771
1.22848e+08,-38.6929
1.22891e+08,-39.3096
1.22934e+08,-37.8595
1.22978e+08,-39.7955
1.23021e+08,-39.8236
1.23064e+08,-39.8482
1.23108e+08,-40.0596
1.23151e+08,-39.2393
1.23194e+08,-40.8731
1.23238e+08,-41.6785
1.23281e+08,-41.8462
1.23324e+08,-41.639
1.23368e+08,-42.5661
1.23411e+08,-41.2472
1.23454e+08,-42.0351
1.23498e+08,-41.2096
1.23541e+08,-41.3726
1.23585e+08,-41.5258
1.23628e+08,-42.0437
1.23671e+08,-41.0571
1.23715e+08,-40.3458
1.23758e+08,-39.0837
1.23801e+08,-40.7841
1.23845e+08,-42.0797
1.23888e+08,-41.6287
1.23931e+08,-42.8003
1.23975e+08,-41.7028
1.24018e+08,-41.283
1.24061e+08,-41.8753
1.24105e+08,-41.064
1.24148e+08,-40.7517
1.24191e+08,-41.2367
1.24235e+08,-40.9906
1.24278e+08,-40.4271
1.24321e+08,-41.3073
1.24365e+08,-41.9735
1.24408e+08,-42.7049
1.24451e+08,-42.4285
1.24495e+08,-41.8607
1.24538e+08,-41.9504
1.24582e+08,-43.3481
1.24625e+08,-42
1.24668e+08,-42.8782
1.24712e+08,-42.3755
1.24755e+08,-42.6744
1.24798e+08,-42.8528
1.24842e+08,-41.3901
1.24885e+08,-41.3225
1.24928e+08,-43.2522
1.24972e+08,-40.9442
1.25015e+08,-42.5422
1.25058e+08,-42.5808
1.25102e+08,-41.704
1.25145e+08,-42.7572
1.25188e+08,-42.2939
1.25232e+08,-42.3978
1.25275e+08,-40.9675
1.25318e+08,-41.7342
1.25362e+08,-41.1301
1.25405e+08,-40.7403
1.25448e+08,-40.9389
1.25492e+08,-41.1751
1.25535e+08,-41.9026
1.25579e+08,-40.9385
1.25622e+08,-42.4348
1.25665e+08,-42.2178
1.25709e+08,-41.4216
1.25752e+08,-35.9174
1.25795e+08,-34.5282
1.25839e+08,-33.9573
1.25882e+08,-42.0374
1.25925e+08,-40.8775
1.25969e+08,-36.9069
1.26012e+08,-37.8256
1.26055e+08,-39.5541
1.26099e+08,-42.5247
1.26142e+08,-38.3254
1.26185e+08,-39.2341
1.26229e+08,-38.0961
1.26272e+08,-38.6432
1.26315e+08,-42.1464
1.26359e+08,-42.1094
1.26402e+08,-43.1025
1.26445e+08,-41.4494
1.26489e+08,-40.0684
1.26532e+08,-42.6891
1.26576e+08,-42.7929
1.26619e+08,-40.2184
1.26662e+08,-41.0406
1.26706e+08,-41.1552
1.26749e+08,-41.3047
1.26792e+08,-41.8409
1.26836e+08,-41.5988
1.26879e+08,-42.36
1.26922e+08,-42.2189
1.26966e+08,-41.0642
1.27009e+08,-41.6462
1.27052e+08,-42.1443
1.27096e+08,-41.5635
1.27139e+08,-41.3795
1.27182e+08,-41.889
1.27226e+08,-40.5795
1.27269e+08,-42.1669
1.27312e+08,-40.0734
1.27356e+08,-40.5445
1.27399e+08,-42.1851
1.27442e+08,-41.7547
1.27486e+08,-41.9557
1.27529e+08,-41.9737
1.27573e+08,-42.2732
1.27616e+08,-41.1815
1.27659e+08,-41.2146
1.27703e+08,-42.2354
1.27746e+08,-41.7539
1.27789e+08,-41.6222
1.27833e+08,-42.3621
1.27876e+08,-42.263
1.27919e+08,-42.2582
1.27963e+08,-41.86
1.28006e+08,-41.4664
1.28049e+08,-40.796
1.28093e+08,-42.3188
1.28136e+08,-41.0814
1.28179e+08,-40.8353
1.28223e+08,-41.368
1.28266e+08,-41.267
1.28309e+08,-41.5904
1.28353e+08,-41.1836
1.28396e+08,-41.3591
1.28439e+08,-40.3514
1.28483e+08,-40.3362
1.28526e+08,-41.2788
1.2857e+08,-41.4948
1.28613e+08,-41.8091
1.28656e+08,-40.7352
1.287e+08,-41.4901
1.28743e+08,-42.3359
1.28786e+08,-41.5891
1.2883e+08,-41.7597
1.28873e+08,-42.7617
1.28916e+08,-41.689
1.2896e+08,-38.1846
1.29003e+08,-41.5798
1.29046e+08,-38.9402
1.2909e+08,-39.0981
1.29133e+08,-38.8667
1.29176e+08,-39.2954
1.2922e+08,-40.2557
1.29263e+08,-39.1237
1.29306e+08,-37.6992
1.2935e+08,-38.2719
1.29393e+08,-40.8638
1.29436e+08,-40.4052
1.2948e+08,-39.8056
1.29523e+08,-18.1836
1.29567e+08,-39.0968
1.2961e+08,-40.4199
1.29653e+08,-38.8178
1.29697e+08,-36.1465
1.2974e+08,-38.1532
1.29783e+08,-37.6399
1.29827e+08,-37.2548
1.2987e+08,-36.0629
1.29913e+08,-36.8255
1.29957e+08,-37.4866
1.3e+08,-40.4949
