FileType,0
Number of Points,3000
Sweep Time,3e+08
Start Frequency,0
Stop Frequency,1.3e+08
Average Count,1000
Average Type,0
RBW,10000
RBW Filter,0
RBW Filter BW,0
VBW,10000
Sweep Type,0
X Axis Scale,1
PreAmp State,0
Trigger Source,0
Trigger Level,-25
Trigger Edge,0
Trigger Delay Switch,0
Trigger Delay,1
Attenuation,40
Ref Level Offset,0
External Gain,0
Trace Type,0
Detector,0
Trace Math,5
Trace Math Oper1,4
Trace Math Oper2,5
Trace Math Offset,0
Trace Name,0
Full Span,1.3e+08
Y Axis Unit,0
DATA,
0,6.09344
43347.8,-49.1268
86695.6,-43.2947
130043,-37.6754
173391,-37.231
216739,-37.1453
260087,-42.5714
303434,-41.1038
346782,-40.9317
390130,-38.6139
433478,-41.4403
476826,-43.1911
520173,-41.1268
563521,-40.8196
606869,-41.0067
650217,-41.0242
693565,-36.6861
736912,-32.9824
780260,-31.2763
823608,-31.1133
866956,-34.9669
910303,-41.1389
953651,-40.068
996999,-40.6655
1.04035e+06,-41.4389
1.08369e+06,-41.6019
1.12704e+06,-41.2502
1.17039e+06,-40.003
1.21374e+06,-41.3107
1.25709e+06,-39.6938
1.30043e+06,-40.8676
1.34378e+06,-39.005
1.38713e+06,-38.3737
1.43048e+06,-38.4685
1.47382e+06,-30.1895
1.51717e+06,-27.8381
1.56052e+06,-27.9914
1.60387e+06,-27.4605
1.64722e+06,-27.9002
1.69056e+06,-34.0578
1.73391e+06,-39.4599
1.77726e+06,-38.7357
1.82061e+06,-40.4304
1.86395e+06,-41.1497
1.9073e+06,-27.7769
1.95065e+06,-27.7686
1.994e+06,-26.6561
2.03735e+06,-27.7494
2.08069e+06,-40.9318
2.12404e+06,-40.0651
2.16739e+06,-37.3304
2.21074e+06,-35.0956
2.25408e+06,-33.02
2.29743e+06,-28.4942
2.34078e+06,-25.819
2.38413e+06,-26.8409
2.42748e+06,-25.4168
2.47082e+06,-29.7825
2.51417e+06,-34.2887
2.55752e+06,-35.0547
2.60087e+06,-36.6624
2.64421e+06,-38.8756
2.68756e+06,-40.1864
2.73091e+06,-32.1047
2.77426e+06,-29.5527
2.81761e+06,-30.0759
2.86095e+06,-32.009
2.9043e+06,-16.8058
2.94765e+06,-15.5174
2.991e+06,-15.5998
3.03434e+06,-18.1844
3.07769e+06,-21.136
3.12104e+06,-31.0008
3.16439e+06,-29.606
3.20774e+06,-31.0194
3.25108e+06,-35.3596
3.29443e+06,-39.6525
3.33778e+06,-38.6333
3.38113e+06,-38.8583
3.42447e+06,-40.2217
3.46782e+06,-40.2529
3.51117e+06,-39.7104
3.55452e+06,-27.9531
3.59787e+06,-27.6226
3.64121e+06,-26.9528
3.68456e+06,-11.778
3.72791e+06,-11.3465
3.77126e+06,-11.2283
3.8146e+06,-12.1662
3.85795e+06,-12.9433
3.9013e+06,-19.0814
3.94465e+06,-27.9971
3.988e+06,-29.4845
4.03134e+06,-37.2033
4.07469e+06,-41.3579
4.11804e+06,-41.3309
4.16139e+06,-38.0166
4.20473e+06,-40.6689
4.24808e+06,-41.0147
4.29143e+06,-41.4017
4.33478e+06,-41.0314
4.37813e+06,-39.9309
4.42147e+06,-39.3288
4.46482e+06,-34.6926
4.50817e+06,-30.8294
4.55152e+06,-31.1468
4.59486e+06,-29.6565
4.63821e+06,-29.4151
4.68156e+06,-30.5273
4.72491e+06,-35.8267
4.76826e+06,-37.9285
4.8116e+06,-39.034
4.85495e+06,-40.5914
4.8983e+06,-41.5529
4.94165e+06,-39.0333
4.98499e+06,-38.2471
5.02834e+06,-39.636
5.07169e+06,-40.781
5.11504e+06,-42.4893
5.15839e+06,-38.8557
5.20173e+06,-38.2272
5.24508e+06,-35.9049
5.28843e+06,-22.1609
5.33178e+06,-20.8225
5.37513e+06,-19.9112
5.41847e+06,-19.1363
5.46182e+06,-17.9654
5.50517e+06,-26.7308
5.54852e+06,-32.5782
5.59186e+06,-32.9956
5.63521e+06,-36.3898
5.67856e+06,-34.2642
5.72191e+06,-37.7502
5.76526e+06,-35.606
5.8086e+06,-34.7147
5.85195e+06,-38.0567
5.8953e+06,-36.3581
5.93865e+06,-36.7814
5.98199e+06,-32.5499
6.02534e+06,-27.4529
6.06869e+06,-14.6018
6.11204e+06,-12.256
6.15539e+06,-13.5582
6.19873e+06,-12.319
6.24208e+06,-12.7615
6.28543e+06,-30.0017
6.32878e+06,-28.9239
6.37212e+06,-27.2367
6.41547e+06,-28.8892
6.45882e+06,-30.5
6.50217e+06,-33.3614
6.54552e+06,-32.2622
6.58886e+06,-31.7874
6.63221e+06,-26.4434
6.67556e+06,-26.4206
6.71891e+06,-25.295
6.76225e+06,-25.1672
6.8056e+06,-25.4053
6.84895e+06,-25.65
6.8923e+06,-25.6278
6.93565e+06,-21.4947
6.97899e+06,-22.6486
7.02234e+06,-24.0625
7.06569e+06,-26.771
7.10904e+06,-36.5972
7.15238e+06,-34.3601
7.19573e+06,-34.7366
7.23908e+06,-37.5088
7.28243e+06,-35.0083
7.32578e+06,-30.9733
7.36912e+06,-28.2685
7.41247e+06,-24.4359
7.45582e+06,-23.4457
7.49917e+06,-22.5537
7.54251e+06,-22.1011
7.58586e+06,-23.8156
7.62921e+06,-24.1827
7.67256e+06,-23.4571
7.71591e+06,-23.1769
7.75925e+06,-23.6847
7.8026e+06,-24.1137
7.84595e+06,-25.3542
7.8893e+06,-27.6037
7.93264e+06,-28.2496
7.97599e+06,-31.2177
8.01934e+06,-32.6275
8.06269e+06,-32.5781
8.10604e+06,-36.0541
8.14938e+06,-38.5364
8.19273e+06,-37.959
8.23608e+06,-36.4524
8.27943e+06,-34.6975
8.32277e+06,-34.4143
8.36612e+06,-33.231
8.40947e+06,-34.0039
8.45282e+06,-33.1569
8.49617e+06,-35.0539
8.53951e+06,-30.3161
8.58286e+06,-30.336
8.62621e+06,-30.1165
8.66956e+06,-30.8183
8.7129e+06,-35.3849
8.75625e+06,-34.002
8.7996e+06,-36.3429
8.84295e+06,-38.5004
8.8863e+06,-41.1292
8.92964e+06,-38.3208
8.97299e+06,-38.0464
9.01634e+06,-34.4106
9.05969e+06,-29.7597
9.10303e+06,-27.0443
9.14638e+06,-27.4492
9.18973e+06,-27.9006
9.23308e+06,-29.4478
9.27643e+06,-28.5147
9.31977e+06,-29.9688
9.36312e+06,-31.8748
9.40647e+06,-31.4883
9.44982e+06,-32.1096
9.49316e+06,-39.6568
9.53651e+06,-38.5421
9.57986e+06,-39.1961
9.62321e+06,-38.5677
9.66656e+06,-40.9604
9.7099e+06,-38.4314
9.75325e+06,-30.667
9.7966e+06,-28.4691
9.83995e+06,-26.4378
9.88329e+06,-24.2482
9.92664e+06,-24.4432
9.96999e+06,-24.5904
1.00133e+07,-24.5766
1.00567e+07,-26.7277
1.01e+07,-26.5865
1.01434e+07,-21.3057
1.01867e+07,-20.7203
1.02301e+07,-20.8273
1.02734e+07,-26.4118
1.03168e+07,-38.7452
1.03601e+07,-36.1614
1.04035e+07,-35.7457
1.04468e+07,-36.3551
1.04902e+07,-36.284
1.05335e+07,-24.8766
1.05769e+07,-25.2466
1.06202e+07,-25.1983
1.06636e+07,-26.2642
1.07069e+07,-34.0353
1.07503e+07,-33.1447
1.07936e+07,-33.9646
1.08369e+07,-33.4966
1.08803e+07,-29.9839
1.09236e+07,-23.7041
1.0967e+07,-24.3356
1.10103e+07,-27.8151
1.10537e+07,-28.2891
1.1097e+07,-32.8173
1.11404e+07,-38.9559
1.11837e+07,-34.1769
1.12271e+07,-35.9197
1.12704e+07,-36.6051
1.13138e+07,-36.2673
1.13571e+07,-36.2917
1.14005e+07,-34.5687
1.14438e+07,-34.8275
1.14872e+07,-34.5757
1.15305e+07,-32.5392
1.15739e+07,-32.5191
1.16172e+07,-32.1206
1.16606e+07,-28.93
1.17039e+07,-17.3882
1.17472e+07,-14.8151
1.17906e+07,-14.4709
1.18339e+07,-16.2649
1.18773e+07,-18.0755
1.19206e+07,-26.5311
1.1964e+07,-36.4409
1.20073e+07,-38.4983
1.20507e+07,-39.2186
1.2094e+07,-40.5483
1.21374e+07,-38.7102
1.21807e+07,-37.9489
1.22241e+07,-40.0416
1.22674e+07,-36.2383
1.23108e+07,-36.2381
1.23541e+07,-33.5307
1.23975e+07,-33.6515
1.24408e+07,-33.3993
1.24842e+07,-19.8569
1.25275e+07,-19.8806
1.25709e+07,-22.1725
1.26142e+07,-23.0709
1.26576e+07,-23.438
1.27009e+07,-26.1245
1.27442e+07,-37.9868
1.27876e+07,-37.6438
1.28309e+07,-39.2968
1.28743e+07,-40.0378
1.29176e+07,-38.3712
1.2961e+07,-37.6799
1.30043e+07,-37.846
1.30477e+07,-36.331
1.3091e+07,-37.4769
1.31344e+07,-37.2816
1.31777e+07,-35.9453
1.32211e+07,-34.0064
1.32644e+07,-31.6841
1.33078e+07,-22.1202
1.33511e+07,-20.9679
1.33945e+07,-21.9294
1.34378e+07,-21.3082
1.34812e+07,-23.6672
1.35245e+07,-37.1708
1.35679e+07,-36.6006
1.36112e+07,-36.5395
1.36546e+07,-37.3422
1.36979e+07,-36.0716
1.37412e+07,-37.411
1.37846e+07,-34.8222
1.38279e+07,-33.0335
1.38713e+07,-32.1726
1.39146e+07,-32.618
1.3958e+07,-30.4739
1.40013e+07,-30.1974
1.40447e+07,-28.379
1.4088e+07,-27.19
1.41314e+07,-25.6192
1.41747e+07,-25.9826
1.42181e+07,-29.6718
1.42614e+07,-32.6546
1.43048e+07,-37.2899
1.43481e+07,-36.0435
1.43915e+07,-33.7085
1.44348e+07,-32.7995
1.44782e+07,-33.9037
1.45215e+07,-36.6302
1.45649e+07,-41.2255
1.46082e+07,-36.8493
1.46516e+07,-36.8225
1.46949e+07,-32.9741
1.47382e+07,-33.1001
1.47816e+07,-33.5725
1.48249e+07,-34.1675
1.48683e+07,-34.6266
1.49116e+07,-31.1684
1.4955e+07,-28.5448
1.49983e+07,-27.4165
1.50417e+07,-30.0729
1.5085e+07,-32.5829
1.51284e+07,-39.7197
1.51717e+07,-38.4737
1.52151e+07,-36.3136
1.52584e+07,-40.4707
1.53018e+07,-39.0081
1.53451e+07,-39.4958
1.53885e+07,-32.1201
1.54318e+07,-33.0054
1.54752e+07,-29.5854
1.55185e+07,-28.9819
1.55619e+07,-29.0081
1.56052e+07,-30.1196
1.56485e+07,-30.0815
1.56919e+07,-30.4381
1.57352e+07,-32.6265
1.57786e+07,-34.8623
1.58219e+07,-34.7473
1.58653e+07,-37.2325
1.59086e+07,-40.6336
1.5952e+07,-41.3139
1.59953e+07,-40.3823
1.60387e+07,-42.2704
1.6082e+07,-41.2406
1.61254e+07,-40.5912
1.61687e+07,-40.7906
1.62121e+07,-39.2928
1.62554e+07,-33.0192
1.62988e+07,-32.926
1.63421e+07,-32.1623
1.63855e+07,-33.1076
1.64288e+07,-33.1294
1.64722e+07,-32.905
1.65155e+07,-33.6288
1.65589e+07,-33.5554
1.66022e+07,-33.5088
1.66455e+07,-34.536
1.66889e+07,-39.3608
1.67322e+07,-42.2348
1.67756e+07,-40.205
1.68189e+07,-39.5893
1.68623e+07,-41.7995
1.69056e+07,-39.6689
1.6949e+07,-40.6087
1.69923e+07,-37.4254
1.70357e+07,-34.5746
1.7079e+07,-34.443
1.71224e+07,-31.8718
1.71657e+07,-32.4443
1.72091e+07,-32.3541
1.72524e+07,-32.8988
1.72958e+07,-31.7138
1.73391e+07,-26.8226
1.73825e+07,-28.7679
1.74258e+07,-28.6888
1.74692e+07,-30.4462
1.75125e+07,-34.6748
1.75559e+07,-36.5536
1.75992e+07,-33.8082
1.76425e+07,-32.9535
1.76859e+07,-27.6583
1.77292e+07,-21.59
1.77726e+07,-20.6962
1.78159e+07,-20.6316
1.78593e+07,-21.3643
1.79026e+07,-24.371
1.7946e+07,-32.0504
1.79893e+07,-33.1566
1.80327e+07,-36.4948
1.8076e+07,-36.5669
1.81194e+07,-37.4058
1.81627e+07,-39.5847
1.82061e+07,-40.3439
1.82494e+07,-41.2761
1.82928e+07,-41.5754
1.83361e+07,-43.0361
1.83795e+07,-42.2341
1.84228e+07,-42.0554
1.84662e+07,-40.0993
1.85095e+07,-40.5697
1.85529e+07,-38.2151
1.85962e+07,-35.4741
1.86395e+07,-38.3662
1.86829e+07,-36.6293
1.87262e+07,-36.4535
1.87696e+07,-34.9472
1.88129e+07,-34.024
1.88563e+07,-31.5755
1.88996e+07,-21.6356
1.8943e+07,-20.8495
1.89863e+07,-23.291
1.90297e+07,-22.8607
1.9073e+07,-25.7371
1.91164e+07,-28.6015
1.91597e+07,-40.0741
1.92031e+07,-38.9882
1.92464e+07,-39.1066
1.92898e+07,-37.0247
1.93331e+07,-33.5572
1.93765e+07,-32.3268
1.94198e+07,-31.1016
1.94632e+07,-30.8352
1.95065e+07,-36.753
1.95498e+07,-35.1057
1.95932e+07,-34.476
1.96365e+07,-35.5032
1.96799e+07,-36.9142
1.97232e+07,-36.3006
1.97666e+07,-41.9117
1.98099e+07,-42.5984
1.98533e+07,-42.7883
1.98966e+07,-42.4765
1.994e+07,-40.9882
1.99833e+07,-41.0862
2.00267e+07,-40.9996
2.007e+07,-41.298
2.01134e+07,-38.7566
2.01567e+07,-39.4286
2.02001e+07,-39.7072
2.02434e+07,-40.065
2.02868e+07,-40.8283
2.03301e+07,-38.624
2.03735e+07,-39.6194
2.04168e+07,-39.0445
2.04602e+07,-39.9978
2.05035e+07,-41.1959
2.05468e+07,-41.2561
2.05902e+07,-41.9217
2.06335e+07,-41.9564
2.06769e+07,-39.5321
2.07202e+07,-38.5074
2.07636e+07,-38.7516
2.08069e+07,-37.3176
2.08503e+07,-40.237
2.08936e+07,-41.0794
2.0937e+07,-40.8686
2.09803e+07,-39.6443
2.10237e+07,-37.1671
2.1067e+07,-37.5742
2.11104e+07,-36.1265
2.11537e+07,-37.0815
2.11971e+07,-37.7929
2.12404e+07,-37.4142
2.12838e+07,-37.1462
2.13271e+07,-38.8807
2.13705e+07,-38.5732
2.14138e+07,-36.8228
2.14572e+07,-33.199
2.15005e+07,-33.329
2.15438e+07,-32.5981
2.15872e+07,-30.6399
2.16305e+07,-31.0495
2.16739e+07,-31.8469
2.17172e+07,-33.8866
2.17606e+07,-35.2115
2.18039e+07,-38.7182
2.18473e+07,-37.8451
2.18906e+07,-38.0964
2.1934e+07,-37.7717
2.19773e+07,-35.8815
2.20207e+07,-37.3395
2.2064e+07,-36.575
2.21074e+07,-38.7837
2.21507e+07,-43.5914
2.21941e+07,-43.159
2.22374e+07,-43.7455
2.22808e+07,-42.2989
2.23241e+07,-41.9643
2.23675e+07,-41.4874
2.24108e+07,-40.6507
2.24542e+07,-40.9646
2.24975e+07,-42.2529
2.25408e+07,-33.9987
2.25842e+07,-39.356
2.26275e+07,-38.1362
2.26709e+07,-34.118
2.27142e+07,-32.6872
2.27576e+07,-32.3594
2.28009e+07,-32.2271
2.28443e+07,-33.6665
2.28876e+07,-36.5022
2.2931e+07,-36.9719
2.29743e+07,-41.4318
2.30177e+07,-44.0827
2.3061e+07,-41.5226
2.31044e+07,-40.8387
2.31477e+07,-39.3445
2.31911e+07,-39.9753
2.32344e+07,-40.5472
2.32778e+07,-40.0731
2.33211e+07,-40.8688
2.33645e+07,-40.2041
2.34078e+07,-40.8917
2.34512e+07,-39.4641
2.34945e+07,-40.7953
2.35378e+07,-40.1182
2.35812e+07,-38.3413
2.36245e+07,-40.1819
2.36679e+07,-40.1853
2.37112e+07,-41.7909
2.37546e+07,-42.4411
2.37979e+07,-42.6896
2.38413e+07,-39.7635
2.38846e+07,-38.2457
2.3928e+07,-37.2314
2.39713e+07,-37.9951
2.40147e+07,-38.6932
2.4058e+07,-38.5797
2.41014e+07,-37.615
2.41447e+07,-40.4445
2.41881e+07,-40.6076
2.42314e+07,-42.252
2.42748e+07,-41.0926
2.43181e+07,-39.9198
2.43615e+07,-39.1867
2.44048e+07,-41.2561
2.44481e+07,-41.7458
2.44915e+07,-41.8834
2.45348e+07,-41.853
2.45782e+07,-43.0666
2.46215e+07,-42.0495
2.46649e+07,-41.1351
2.47082e+07,-41.1588
2.47516e+07,-42.4057
2.47949e+07,-41.7533
2.48383e+07,-42.2546
2.48816e+07,-40.749
2.4925e+07,-41.3642
2.49683e+07,-41.7913
2.50117e+07,-40.8059
2.5055e+07,-41.3883
2.50984e+07,-38.9336
2.51417e+07,-38.7925
2.51851e+07,-36.9452
2.52284e+07,-38.6475
2.52718e+07,-39.2413
2.53151e+07,-37.9384
2.53585e+07,-39.4287
2.54018e+07,-40.4332
2.54451e+07,-39.1325
2.54885e+07,-39.6604
2.55318e+07,-39.3079
2.55752e+07,-39.1416
2.56185e+07,-40.6107
2.56619e+07,-41.4234
2.57052e+07,-41.0054
2.57486e+07,-40.2829
2.57919e+07,-40.1858
2.58353e+07,-41.5472
2.58786e+07,-39.3716
2.5922e+07,-40.9227
2.59653e+07,-40.9264
2.60087e+07,-41.7538
2.6052e+07,-40.2711
2.60954e+07,-40.711
2.61387e+07,-42.6633
2.61821e+07,-41.8047
2.62254e+07,-40.4748
2.62688e+07,-42.0576
2.63121e+07,-42.8354
2.63555e+07,-41.9386
2.63988e+07,-41.1098
2.64421e+07,-41.2578
2.64855e+07,-40.7898
2.65288e+07,-38.9539
2.65722e+07,-39.8713
2.66155e+07,-39.8197
2.66589e+07,-39.0532
2.67022e+07,-40.0168
2.67456e+07,-40.8427
2.67889e+07,-40.0727
2.68323e+07,-41.1243
2.68756e+07,-39.4044
2.6919e+07,-40.4358
2.69623e+07,-40.6065
2.70057e+07,-40.5354
2.7049e+07,-41.4438
2.70924e+07,-39.1496
2.71357e+07,-38.2641
2.71791e+07,-29.9958
2.72224e+07,-27.9661
2.72658e+07,-27.665
2.73091e+07,-27.2491
2.73525e+07,-27.7054
2.73958e+07,-29.1703
2.74391e+07,-29.3561
2.74825e+07,-33.9762
2.75258e+07,-31.5321
2.75692e+07,-31.9744
2.76125e+07,-34.1114
2.76559e+07,-34.4905
2.76992e+07,-34.0811
2.77426e+07,-34.533
2.77859e+07,-34.8517
2.78293e+07,-35.1165
2.78726e+07,-35.7209
2.7916e+07,-37.2139
2.79593e+07,-38.7412
2.80027e+07,-38.0409
2.8046e+07,-38.2785
2.80894e+07,-36.4023
2.81327e+07,-37.5812
2.81761e+07,-36.9457
2.82194e+07,-37.968
2.82628e+07,-34.389
2.83061e+07,-36.28
2.83494e+07,-34.8268
2.83928e+07,-36.0614
2.84361e+07,-33.7524
2.84795e+07,-32.6707
2.85228e+07,-30.78
2.85662e+07,-31.128
2.86095e+07,-31.104
2.86529e+07,-33.2325
2.86962e+07,-32.0896
2.87396e+07,-29.7233
2.87829e+07,-29.2732
2.88263e+07,-31.7349
2.88696e+07,-31.2297
2.8913e+07,-31.5436
2.89563e+07,-34.0612
2.89997e+07,-33.7132
2.9043e+07,-35.6365
2.90864e+07,-33.8085
2.91297e+07,-31.8441
2.91731e+07,-32.549
2.92164e+07,-32.998
2.92598e+07,-33.3194
2.93031e+07,-33.0999
2.93464e+07,-33.4284
2.93898e+07,-33.7018
2.94331e+07,-33.7102
2.94765e+07,-33.2637
2.95198e+07,-33.9961
2.95632e+07,-29.5804
2.96065e+07,-33.5683
2.96499e+07,-31.0444
2.96932e+07,-30.8566
2.97366e+07,-31.9261
2.97799e+07,-29.6125
2.98233e+07,-31.4331
2.98666e+07,-30.861
2.991e+07,-31.1062
2.99533e+07,-29.9332
2.99967e+07,-30.2907
3.004e+07,-31.6599
3.00834e+07,-31.4336
3.01267e+07,-33.4589
3.01701e+07,-32.4573
3.02134e+07,-32.1768
3.02568e+07,-32.8953
3.03001e+07,-30.6555
3.03434e+07,-31.5246
3.03868e+07,-28.6384
3.04301e+07,-30.2425
3.04735e+07,-29.6029
3.05168e+07,-29.6388
3.05602e+07,-31.9249
3.06035e+07,-29.4536
3.06469e+07,-30.3772
3.06902e+07,-34.676
3.07336e+07,-32.161
3.07769e+07,-32.5857
3.08203e+07,-33.6618
3.08636e+07,-33.3079
3.0907e+07,-35.2415
3.09503e+07,-36.9567
3.09937e+07,-37.6547
3.1037e+07,-35.3224
3.10804e+07,-33.3935
3.11237e+07,-31.8051
3.11671e+07,-30.7682
3.12104e+07,-30.4977
3.12538e+07,-29.8406
3.12971e+07,-28.2641
3.13404e+07,-29.9289
3.13838e+07,-30.4166
3.14271e+07,-29.9143
3.14705e+07,-29.5292
3.15138e+07,-30.2448
3.15572e+07,-30.4126
3.16005e+07,-31.9175
3.16439e+07,-33.028
3.16872e+07,-33.6845
3.17306e+07,-34.8626
3.17739e+07,-34.168
3.18173e+07,-35.9053
3.18606e+07,-36.1287
3.1904e+07,-37.2421
3.19473e+07,-37.5429
3.19907e+07,-38.9121
3.2034e+07,-39.1373
3.20774e+07,-37.74
3.21207e+07,-38.795
3.21641e+07,-36.8671
3.22074e+07,-35.7825
3.22508e+07,-34.9291
3.22941e+07,-36.1881
3.23374e+07,-35.2472
3.23808e+07,-34.8955
3.24241e+07,-36.3473
3.24675e+07,-35.6789
3.25108e+07,-35.3752
3.25542e+07,-35.1197
3.25975e+07,-32.9019
3.26409e+07,-33.646
3.26842e+07,-33.8471
3.27276e+07,-34.6735
3.27709e+07,-33.367
3.28143e+07,-33.9946
3.28576e+07,-38.1466
3.2901e+07,-39.5736
3.29443e+07,-40.0253
3.29877e+07,-39.6001
3.3031e+07,-40.7579
3.30744e+07,-40.435
3.31177e+07,-40.4238
3.31611e+07,-41.1484
3.32044e+07,-40.4752
3.32477e+07,-40.2126
3.32911e+07,-39.5424
3.33344e+07,-40.4637
3.33778e+07,-40.8761
3.34211e+07,-40.3972
3.34645e+07,-39.5419
3.35078e+07,-39.2188
3.35512e+07,-39.3347
3.35945e+07,-40.2837
3.36379e+07,-39.8976
3.36812e+07,-40.0336
3.37246e+07,-39.5444
3.37679e+07,-39.9354
3.38113e+07,-39.8418
3.38546e+07,-39.4251
3.3898e+07,-40.5437
3.39413e+07,-40.7359
3.39847e+07,-40.0856
3.4028e+07,-40.9207
3.40714e+07,-40.0959
3.41147e+07,-40.2857
3.41581e+07,-39.9064
3.42014e+07,-39.9793
3.42447e+07,-38.7732
3.42881e+07,-39.8266
3.43314e+07,-40.021
3.43748e+07,-39.2997
3.44181e+07,-39.4496
3.44615e+07,-38.9322
3.45048e+07,-34.5063
3.45482e+07,-40.677
3.45915e+07,-40.3679
3.46349e+07,-39.6689
3.46782e+07,-40.4595
3.47216e+07,-40.5225
3.47649e+07,-41.7264
3.48083e+07,-40.699
3.48516e+07,-40.6119
3.4895e+07,-40.1717
3.49383e+07,-39.6713
3.49817e+07,-39.8416
3.5025e+07,-39.002
3.50684e+07,-39.1819
3.51117e+07,-38.9519
3.51551e+07,-39.3557
3.51984e+07,-37.8198
3.52417e+07,-38.1846
3.52851e+07,-38.5268
3.53284e+07,-40.2819
3.53718e+07,-39.7004
3.54151e+07,-40.0423
3.54585e+07,-40.7963
3.55018e+07,-40.3104
3.55452e+07,-41.4049
3.55885e+07,-41.1369
3.56319e+07,-40.815
3.56752e+07,-41.6215
3.57186e+07,-42.0458
3.57619e+07,-41.4996
3.58053e+07,-40.176
3.58486e+07,-42.1796
3.5892e+07,-42.0364
3.59353e+07,-42.1884
3.59787e+07,-42.5569
3.6022e+07,-39.7834
3.60654e+07,-40.9378
3.61087e+07,-42.4118
3.61521e+07,-41.0714
3.61954e+07,-41.8036
3.62387e+07,-40.6566
3.62821e+07,-42.4903
3.63254e+07,-40.4212
3.63688e+07,-40.2065
3.64121e+07,-41.4892
3.64555e+07,-41.3282
3.64988e+07,-41.369
3.65422e+07,-42.2954
3.65855e+07,-42.1818
3.66289e+07,-41.0898
3.66722e+07,-41.9898
3.67156e+07,-41.6564
3.67589e+07,-41.254
3.68023e+07,-41.3353
3.68456e+07,-40.8575
3.6889e+07,-41.4131
3.69323e+07,-41.5042
3.69757e+07,-41.8012
3.7019e+07,-42.3674
3.70624e+07,-43.0925
3.71057e+07,-41.702
3.7149e+07,-43.4085
3.71924e+07,-42.2478
3.72357e+07,-41.8523
3.72791e+07,-42.928
3.73224e+07,-42.0453
3.73658e+07,-43.0965
3.74091e+07,-41.5028
3.74525e+07,-42.2379
3.74958e+07,-40.6868
3.75392e+07,-40.2714
3.75825e+07,-41.7219
3.76259e+07,-42.8341
3.76692e+07,-41.2795
3.77126e+07,-42.3009
3.77559e+07,-42.2552
3.77993e+07,-44.0757
3.78426e+07,-41.8374
3.7886e+07,-43.4374
3.79293e+07,-42.241
3.79727e+07,-42.2773
3.8016e+07,-43.3591
3.80594e+07,-43.0096
3.81027e+07,-42.6497
3.8146e+07,-42.3869
3.81894e+07,-42.8762
3.82327e+07,-42.9251
3.82761e+07,-42.2992
3.83194e+07,-43.6525
3.83628e+07,-42.7833
3.84061e+07,-43.4671
3.84495e+07,-42.4649
3.84928e+07,-42.8071
3.85362e+07,-43.4719
3.85795e+07,-42.5865
3.86229e+07,-43.1479
3.86662e+07,-43.9504
3.87096e+07,-42.4874
3.87529e+07,-42.5107
3.87963e+07,-42.5575
3.88396e+07,-41.8865
3.8883e+07,-41.6837
3.89263e+07,-41.4026
3.89697e+07,-42.6232
3.9013e+07,-42.962
3.90564e+07,-42.6658
3.90997e+07,-42.3103
3.9143e+07,-43.5595
3.91864e+07,-42.5894
3.92297e+07,-42.3237
3.92731e+07,-41.8895
3.93164e+07,-42.9908
3.93598e+07,-41.7808
3.94031e+07,-42.6266
3.94465e+07,-42.3736
3.94898e+07,-44.2863
3.95332e+07,-42.593
3.95765e+07,-42.5787
3.96199e+07,-43.0795
3.96632e+07,-42.3269
3.97066e+07,-43.5472
3.97499e+07,-41.8141
3.97933e+07,-42.5969
3.98366e+07,-42.3955
3.988e+07,-41.0955
3.99233e+07,-42.7014
3.99667e+07,-42.4275
4.001e+07,-43.4673
4.00534e+07,-42.749
4.00967e+07,-41.187
4.014e+07,-42.7103
4.01834e+07,-43.3834
4.02267e+07,-42.9731
4.02701e+07,-41.8038
4.03134e+07,-41.834
4.03568e+07,-42.9332
4.04001e+07,-41.8424
4.04435e+07,-42.7623
4.04868e+07,-43.4345
4.05302e+07,-41.7513
4.05735e+07,-42.1289
4.06169e+07,-43.0066
4.06602e+07,-42.3606
4.07036e+07,-42.9026
4.07469e+07,-42.5892
4.07903e+07,-41.4092
4.08336e+07,-42.3003
4.0877e+07,-42.5935
4.09203e+07,-41.9853
4.09637e+07,-42.5319
4.1007e+07,-43.6441
4.10504e+07,-42.2768
4.10937e+07,-42.8574
4.1137e+07,-43.1098
4.11804e+07,-43.0247
4.12237e+07,-43.5742
4.12671e+07,-41.5241
4.13104e+07,-41.7446
4.13538e+07,-42.046
4.13971e+07,-41.8046
4.14405e+07,-42.4929
4.14838e+07,-42.7687
4.15272e+07,-43.3482
4.15705e+07,-41.4191
4.16139e+07,-42.6483
4.16572e+07,-43.2144
4.17006e+07,-41.3528
4.17439e+07,-43.5144
4.17873e+07,-41.4766
4.18306e+07,-40.9276
4.1874e+07,-42.5857
4.19173e+07,-42.0087
4.19607e+07,-42.6186
4.2004e+07,-41.5093
4.20473e+07,-43.1777
4.20907e+07,-41.1687
4.2134e+07,-40.8294
4.21774e+07,-41.977
4.22207e+07,-42.2503
4.22641e+07,-42.1551
4.23074e+07,-42.8243
4.23508e+07,-42.1233
4.23941e+07,-42.8973
4.24375e+07,-42.4338
4.24808e+07,-42.6218
4.25242e+07,-42.2403
4.25675e+07,-41.84
4.26109e+07,-42.9262
4.26542e+07,-42.4751
4.26976e+07,-41.6846
4.27409e+07,-42.3449
4.27843e+07,-42.784
4.28276e+07,-42.3862
4.2871e+07,-40.897
4.29143e+07,-42.3122
4.29577e+07,-42.0544
4.3001e+07,-42.4646
4.30443e+07,-42.1436
4.30877e+07,-40.9589
4.3131e+07,-41.5435
4.31744e+07,-42.7104
4.32177e+07,-42.1611
4.32611e+07,-41.864
4.33044e+07,-42.763
4.33478e+07,-42.3938
4.33911e+07,-41.8114
4.34345e+07,-41.7379
4.34778e+07,-40.7444
4.35212e+07,-43.3626
4.35645e+07,-43.347
4.36079e+07,-41.5757
4.36512e+07,-42.9278
4.36946e+07,-42.5093
4.37379e+07,-42.5563
4.37813e+07,-43.1268
4.38246e+07,-42.9965
4.3868e+07,-43.4553
4.39113e+07,-41.7666
4.39547e+07,-43.2123
4.3998e+07,-41.8225
4.40413e+07,-43.1209
4.40847e+07,-42.0197
4.4128e+07,-42.6309
4.41714e+07,-42.4984
4.42147e+07,-42.5642
4.42581e+07,-43.3241
4.43014e+07,-42.5687
4.43448e+07,-42.7164
4.43881e+07,-43.2467
4.44315e+07,-42.5588
4.44748e+07,-43.6066
4.45182e+07,-43.0292
4.45615e+07,-43.7948
4.46049e+07,-43.516
4.46482e+07,-41.864
4.46916e+07,-42.9
4.47349e+07,-42.8655
4.47783e+07,-42.3109
4.48216e+07,-42.2787
4.4865e+07,-41.9642
4.49083e+07,-42.3014
4.49517e+07,-42.4866
4.4995e+07,-42.1465
4.50383e+07,-41.0317
4.50817e+07,-42.3791
4.5125e+07,-42.0209
4.51684e+07,-42.5047
4.52117e+07,-42.5046
4.52551e+07,-42.8005
4.52984e+07,-42.218
4.53418e+07,-41.9936
4.53851e+07,-42.4292
4.54285e+07,-42.2997
4.54718e+07,-42.9864
4.55152e+07,-42.3639
4.55585e+07,-41.9136
4.56019e+07,-42.2307
4.56452e+07,-43.1159
4.56886e+07,-40.9116
4.57319e+07,-41.4643
4.57753e+07,-40.7143
4.58186e+07,-41.489
4.5862e+07,-42.7889
4.59053e+07,-40.8564
4.59486e+07,-42.4882
4.5992e+07,-42.3855
4.60353e+07,-41.5093
4.60787e+07,-42.1838
4.6122e+07,-41.6952
4.61654e+07,-42.2471
4.62087e+07,-42.2333
4.62521e+07,-41.5086
4.62954e+07,-41.4292
4.63388e+07,-41.8805
4.63821e+07,-41.7116
4.64255e+07,-42.0035
4.64688e+07,-42.6905
4.65122e+07,-41.2682
4.65555e+07,-40.6471
4.65989e+07,-43.2654
4.66422e+07,-42.9828
4.66856e+07,-42.0027
4.67289e+07,-41.827
4.67723e+07,-42.923
4.68156e+07,-43.2853
4.6859e+07,-42.4573
4.69023e+07,-42.7084
4.69456e+07,-43.2285
4.6989e+07,-42.7515
4.70323e+07,-40.1373
4.70757e+07,-42.9566
4.7119e+07,-40.7714
4.71624e+07,-40.7137
4.72057e+07,-41.6961
4.72491e+07,-42.0499
4.72924e+07,-42.7602
4.73358e+07,-43.6995
4.73791e+07,-42.2206
4.74225e+07,-43.2577
4.74658e+07,-42.7548
4.75092e+07,-41.9559
4.75525e+07,-41.3181
4.75959e+07,-42.441
4.76392e+07,-40.8393
4.76826e+07,-41.2849
4.77259e+07,-41.0631
4.77693e+07,-41.6219
4.78126e+07,-41.2519
4.7856e+07,-42.4262
4.78993e+07,-41.9283
4.79426e+07,-41.7325
4.7986e+07,-42.0387
4.80293e+07,-41.8578
4.80727e+07,-42.724
4.8116e+07,-43.008
4.81594e+07,-41.8052
4.82027e+07,-42.7574
4.82461e+07,-42.3369
4.82894e+07,-42.0066
4.83328e+07,-40.3763
4.83761e+07,-42.6224
4.84195e+07,-42.3364
4.84628e+07,-41.7051
4.85062e+07,-41.735
4.85495e+07,-42.2351
4.85929e+07,-42.2624
4.86362e+07,-42.4144
4.86796e+07,-40.8361
4.87229e+07,-41.9565
4.87663e+07,-41.3595
4.88096e+07,-42.77
4.8853e+07,-42.0004
4.88963e+07,-41.9428
4.89396e+07,-42.6349
4.8983e+07,-41.9249
4.90263e+07,-42.0622
4.90697e+07,-41.1228
4.9113e+07,-40.1309
4.91564e+07,-42.8371
4.91997e+07,-41.3335
4.92431e+07,-42.3569
4.92864e+07,-41.6427
4.93298e+07,-42.4076
4.93731e+07,-41.0301
4.94165e+07,-41.2023
4.94598e+07,-42.4165
4.95032e+07,-42.5951
4.95465e+07,-42.5098
4.95899e+07,-41.6247
4.96332e+07,-41.3774
4.96766e+07,-42.5047
4.97199e+07,-42.186
4.97633e+07,-42.9582
4.98066e+07,-42.1586
4.98499e+07,-42.8447
4.98933e+07,-41.9133
4.99366e+07,-42.864
4.998e+07,-41.8517
5.00233e+07,-42.499
5.00667e+07,-43.168
5.011e+07,-42.1353
5.01534e+07,-42.2441
5.01967e+07,-43.1983
5.02401e+07,-41.484
5.02834e+07,-41.7817
5.03268e+07,-42.8437
5.03701e+07,-41.1999
5.04135e+07,-41.7988
5.04568e+07,-42.5739
5.05002e+07,-41.1192
5.05435e+07,-43.152
5.05869e+07,-42.7849
5.06302e+07,-41.2157
5.06736e+07,-42.4278
5.07169e+07,-41.2766
5.07603e+07,-41.3134
5.08036e+07,-41.4456
5.08469e+07,-41.2033
5.08903e+07,-40.8969
5.09336e+07,-42.6064
5.0977e+07,-40.3403
5.10203e+07,-42.5163
5.10637e+07,-39.5789
5.1107e+07,-40.7877
5.11504e+07,-40.7492
5.11937e+07,-41.1664
5.12371e+07,-42.5301
5.12804e+07,-41.7715
5.13238e+07,-42.1605
5.13671e+07,-42.0081
5.14105e+07,-42.8323
5.14538e+07,-41.9991
5.14972e+07,-42.6581
5.15405e+07,-41.8449
5.15839e+07,-41.2549
5.16272e+07,-41.4693
5.16706e+07,-41.6935
5.17139e+07,-40.3833
5.17573e+07,-41.3078
5.18006e+07,-40.8254
5.18439e+07,-41.9233
5.18873e+07,-41.5066
5.19306e+07,-42.0696
5.1974e+07,-41.7532
5.20173e+07,-42.2549
5.20607e+07,-41.8879
5.2104e+07,-42.2869
5.21474e+07,-41.7314
5.21907e+07,-41.9052
5.22341e+07,-41.8047
5.22774e+07,-41.6285
5.23208e+07,-42.4861
5.23641e+07,-42.5237
5.24075e+07,-42.7578
5.24508e+07,-42.1769
5.24942e+07,-42.3461
5.25375e+07,-41.8347
5.25809e+07,-41.5476
5.26242e+07,-41.4095
5.26676e+07,-42.4575
5.27109e+07,-41.7478
5.27543e+07,-41.7736
5.27976e+07,-40.534
5.28409e+07,-41
5.28843e+07,-40.3264
5.29276e+07,-40.4406
5.2971e+07,-40.8858
5.30143e+07,-40.3372
5.30577e+07,-40.3702
5.3101e+07,-40.8234
5.31444e+07,-38.5355
5.31877e+07,-41.1875
5.32311e+07,-40.7345
5.32744e+07,-39.7417
5.33178e+07,-39.7931
5.33611e+07,-40.3183
5.34045e+07,-39.4585
5.34478e+07,-40.3769
5.34912e+07,-40.0267
5.35345e+07,-39.4982
5.35779e+07,-40.4507
5.36212e+07,-41.2804
5.36646e+07,-42.0001
5.37079e+07,-42.3166
5.37513e+07,-41.4244
5.37946e+07,-41.3416
5.38379e+07,-40.4132
5.38813e+07,-40.7835
5.39246e+07,-41.5329
5.3968e+07,-39.2546
5.40113e+07,-39.9274
5.40547e+07,-39.1964
5.4098e+07,-39.5474
5.41414e+07,-39.0496
5.41847e+07,-40.668
5.42281e+07,-40.2115
5.42714e+07,-40.4052
5.43148e+07,-38.9051
5.43581e+07,-39.7503
5.44015e+07,-39.6819
5.44448e+07,-39.9759
5.44882e+07,-39.9057
5.45315e+07,-39.6478
5.45749e+07,-40.3128
5.46182e+07,-40.4938
5.46616e+07,-39.6713
5.47049e+07,-36.0806
5.47482e+07,-37.0493
5.47916e+07,-38.7992
5.48349e+07,-38.9105
5.48783e+07,-39.0137
5.49216e+07,-39.061
5.4965e+07,-39.5427
5.50083e+07,-38.9476
5.50517e+07,-39.3408
5.5095e+07,-40.1346
5.51384e+07,-40.2718
5.51817e+07,-39.0733
5.52251e+07,-39.9641
5.52684e+07,-40.1344
5.53118e+07,-40.7274
5.53551e+07,-39.5555
5.53985e+07,-40.0592
5.54418e+07,-40.396
5.54852e+07,-39.4919
5.55285e+07,-40.2567
5.55719e+07,-37.8639
5.56152e+07,-38.1214
5.56586e+07,-37.5069
5.57019e+07,-38.4161
5.57452e+07,-38.5315
5.57886e+07,-37.2356
5.58319e+07,-37.1487
5.58753e+07,-38.6272
5.59186e+07,-38.3222
5.5962e+07,-38.0953
5.60053e+07,-38.4422
5.60487e+07,-38.4835
5.6092e+07,-39.2223
5.61354e+07,-39.1964
5.61787e+07,-38.2638
5.62221e+07,-38.284
5.62654e+07,-39.945
5.63088e+07,-38.7601
5.63521e+07,-40.2445
5.63955e+07,-40.6001
5.64388e+07,-40.299
5.64822e+07,-39.7265
5.65255e+07,-40.634
5.65689e+07,-39.0871
5.66122e+07,-39.2053
5.66556e+07,-38.6834
5.66989e+07,-38.0574
5.67422e+07,-38.4736
5.67856e+07,-39.3414
5.68289e+07,-37.9173
5.68723e+07,-37.945
5.69156e+07,-36.2291
5.6959e+07,-36.4913
5.70023e+07,-36.1177
5.70457e+07,-36.9012
5.7089e+07,-36.8494
5.71324e+07,-36.6166
5.71757e+07,-36.3412
5.72191e+07,-36.5308
5.72624e+07,-37.1971
5.73058e+07,-36.7657
5.73491e+07,-37.1637
5.73925e+07,-38.4661
5.74358e+07,-38.8841
5.74792e+07,-38.3688
5.75225e+07,-38.6149
5.75659e+07,-37.432
5.76092e+07,-39.2514
5.76526e+07,-38.0045
5.76959e+07,-38.2346
5.77392e+07,-36.4421
5.77826e+07,-36.3743
5.78259e+07,-36.2955
5.78693e+07,-36.4841
5.79126e+07,-37.0107
5.7956e+07,-35.4608
5.79993e+07,-35.8942
5.80427e+07,-35.1844
5.8086e+07,-36.4999
5.81294e+07,-34.7994
5.81727e+07,-37.1461
5.82161e+07,-37.5893
5.82594e+07,-36.9102
5.83028e+07,-37.3204
5.83461e+07,-36.868
5.83895e+07,-37.4851
5.84328e+07,-35.9018
5.84762e+07,-36.3237
5.85195e+07,-36.3143
5.85629e+07,-36.6246
5.86062e+07,-37.5295
5.86495e+07,-37.813
5.86929e+07,-37.0662
5.87362e+07,-37.758
5.87796e+07,-36.1897
5.88229e+07,-35.5594
5.88663e+07,-36.5001
5.89096e+07,-36.0695
5.8953e+07,-34.7025
5.89963e+07,-36.6018
5.90397e+07,-37.1768
5.9083e+07,-37.627
5.91264e+07,-37.118
5.91697e+07,-38.3173
5.92131e+07,-35.915
5.92564e+07,-35.179
5.92998e+07,-35.9258
5.93431e+07,-36.048
5.93865e+07,-35.7874
5.94298e+07,-37.4848
5.94732e+07,-35.8374
5.95165e+07,-37.4792
5.95599e+07,-35.8854
5.96032e+07,-36.176
5.96465e+07,-36.2009
5.96899e+07,-36.311
5.97332e+07,-36.5071
5.97766e+07,-36.7247
5.98199e+07,-35.7472
5.98633e+07,-34.8101
5.99066e+07,-36.7413
5.995e+07,-36.8438
5.99933e+07,-37.5869
6.00367e+07,-36.3146
6.008e+07,-36.7993
6.01234e+07,-37.1839
6.01667e+07,-37.7349
6.02101e+07,-37.9163
6.02534e+07,-38.5562
6.02968e+07,-37.4612
6.03401e+07,-35.5742
6.03835e+07,-36.3716
6.04268e+07,-36.0764
6.04702e+07,-35.4935
6.05135e+07,-33.9608
6.05569e+07,-34.2876
6.06002e+07,-35.5607
6.06435e+07,-36.3291
6.06869e+07,-36.5566
6.07302e+07,-36.7853
6.07736e+07,-36.2641
6.08169e+07,-35.8117
6.08603e+07,-36.347
6.09036e+07,-34.2683
6.0947e+07,-34.3011
6.09903e+07,-35.8747
6.10337e+07,-33.1679
6.1077e+07,-34.5293
6.11204e+07,-33.8105
6.11637e+07,-33.7758
6.12071e+07,-33.7739
6.12504e+07,-34.3278
6.12938e+07,-33.9304
6.13371e+07,-36.6096
6.13805e+07,-32.868
6.14238e+07,-37.7232
6.14672e+07,-38.34
6.15105e+07,-37.1316
6.15539e+07,-37.7228
6.15972e+07,-37.1517
6.16405e+07,-36.464
6.16839e+07,-36.9775
6.17272e+07,-34.6526
6.17706e+07,-36.2728
6.18139e+07,-36.4612
6.18573e+07,-35.7414
6.19006e+07,-36.7163
6.1944e+07,-35.8195
6.19873e+07,-38.0712
6.20307e+07,-36.4371
6.2074e+07,-36.8722
6.21174e+07,-36.5954
6.21607e+07,-36.7156
6.22041e+07,-38.4703
6.22474e+07,-38.2912
6.22908e+07,-37.6314
6.23341e+07,-38.7287
6.23775e+07,-34.7952
6.24208e+07,-36.9481
6.24642e+07,-36.628
6.25075e+07,-34.9992
6.25509e+07,-34.818
6.25942e+07,-36.7947
6.26375e+07,-37.2255
6.26809e+07,-38.6911
6.27242e+07,-36.3464
6.27676e+07,-38.052
6.28109e+07,-36.9869
6.28543e+07,-37.1865
6.28976e+07,-38.0686
6.2941e+07,-38.6479
6.29843e+07,-37.7215
6.30277e+07,-38.4591
6.3071e+07,-38.0965
6.31144e+07,-37.2705
6.31577e+07,-36.5069
6.32011e+07,-35.9413
6.32444e+07,-35.9523
6.32878e+07,-36.5468
6.33311e+07,-36.303
6.33745e+07,-36.5039
6.34178e+07,-35.3662
6.34612e+07,-37.0982
6.35045e+07,-37.285
6.35478e+07,-38.4576
6.35912e+07,-38.7649
6.36345e+07,-36.4044
6.36779e+07,-38.9351
6.37212e+07,-38.7554
6.37646e+07,-39.0071
6.38079e+07,-38.5074
6.38513e+07,-38.5521
6.38946e+07,-39.8476
6.3938e+07,-39.8858
6.39813e+07,-39.1336
6.40247e+07,-38.1251
6.4068e+07,-39.1302
6.41114e+07,-37.7156
6.41547e+07,-38.2975
6.41981e+07,-38.6474
6.42414e+07,-39.4226
6.42848e+07,-38.4822
6.43281e+07,-37.6203
6.43715e+07,-36.0923
6.44148e+07,-34.3724
6.44582e+07,-34.2
6.45015e+07,-34.6792
6.45448e+07,-34.5026
6.45882e+07,-34.2982
6.46315e+07,-33.6324
6.46749e+07,-35.2166
6.47182e+07,-35.5174
6.47616e+07,-37.6568
6.48049e+07,-36.9264
6.48483e+07,-37.0137
6.48916e+07,-35.4559
6.4935e+07,-35.3681
6.49783e+07,-35.3473
6.50217e+07,-34.4862
6.5065e+07,-35.8831
6.51084e+07,-37.445
6.51517e+07,-37.2777
6.51951e+07,-36.4516
6.52384e+07,-36.3836
6.52818e+07,-36.3625
6.53251e+07,-38.2362
6.53685e+07,-36.2191
6.54118e+07,-37.6658
6.54552e+07,-39.3434
6.54985e+07,-40.0115
6.55418e+07,-36.1889
6.55852e+07,-33.899
6.56285e+07,-32.5474
6.56719e+07,-31.9444
6.57152e+07,-32.6362
6.57586e+07,-34.1945
6.58019e+07,-32.9887
6.58453e+07,-33.4141
6.58886e+07,-32.849
6.5932e+07,-33.5576
6.59753e+07,-39.3027
6.60187e+07,-38.43
6.6062e+07,-39.6626
6.61054e+07,-38.6693
6.61487e+07,-39.4173
6.61921e+07,-40.2139
6.62354e+07,-40.2611
6.62788e+07,-38.0676
6.63221e+07,-36.0553
6.63655e+07,-33.6513
6.64088e+07,-33.3316
6.64522e+07,-34.1113
6.64955e+07,-30.7289
6.65388e+07,-31.0981
6.65822e+07,-32.2526
6.66255e+07,-32.875
6.66689e+07,-32.8764
6.67122e+07,-30.8484
6.67556e+07,-30.3354
6.67989e+07,-29.2926
6.68423e+07,-29.5981
6.68856e+07,-28.0599
6.6929e+07,-29.05
6.69723e+07,-28.526
6.70157e+07,-29.7117
6.7059e+07,-30.3532
6.71024e+07,-31.2168
6.71457e+07,-31.3608
6.71891e+07,-33.7347
6.72324e+07,-32.7571
6.72758e+07,-31.8785
6.73191e+07,-31.7091
6.73625e+07,-32.6073
6.74058e+07,-34.1972
6.74491e+07,-32.7935
6.74925e+07,-35.6888
6.75358e+07,-35.4989
6.75792e+07,-36.8075
6.76225e+07,-34.8898
6.76659e+07,-35.9288
6.77092e+07,-34.4899
6.77526e+07,-37.165
6.77959e+07,-34.5085
6.78393e+07,-34.0841
6.78826e+07,-35.3287
6.7926e+07,-36.1094
6.79693e+07,-33.9362
6.80127e+07,-33.1869
6.8056e+07,-33.4361
6.80994e+07,-33.0934
6.81427e+07,-32.2004
6.81861e+07,-30.6044
6.82294e+07,-33.3792
6.82728e+07,-34.9057
6.83161e+07,-38.6328
6.83595e+07,-38.5543
6.84028e+07,-38.672
6.84461e+07,-37.0161
6.84895e+07,-37.5096
6.85328e+07,-39.7068
6.85762e+07,-38.7632
6.86195e+07,-39.8516
6.86629e+07,-39.3639
6.87062e+07,-32.1255
6.87496e+07,-29.4549
6.87929e+07,-29.9773
6.88363e+07,-29.2827
6.88796e+07,-27.8376
6.8923e+07,-29.2187
6.89663e+07,-28.9316
6.90097e+07,-27.0352
6.9053e+07,-28.474
6.90964e+07,-29.4813
6.91397e+07,-29.0639
6.91831e+07,-33.7376
6.92264e+07,-33.3253
6.92698e+07,-34.2868
6.93131e+07,-34.5665
6.93565e+07,-24.5111
6.93998e+07,-23.4345
6.94431e+07,-23.2945
6.94865e+07,-22.4842
6.95298e+07,-22.5365
6.95732e+07,-21.7381
6.96165e+07,-21.0292
6.96599e+07,-26.0573
6.97032e+07,-27.4375
6.97466e+07,-28.5836
6.97899e+07,-29.246
6.98333e+07,-29.7254
6.98766e+07,-28.4669
6.992e+07,-30.8123
6.99633e+07,-30.5551
7.00067e+07,-37.1971
7.005e+07,-38.6856
7.00934e+07,-39.723
7.01367e+07,-40.066
7.01801e+07,-40.3786
7.02234e+07,-38.4358
7.02668e+07,-37.0235
7.03101e+07,-32.9319
7.03535e+07,-33.7395
7.03968e+07,-31.7785
7.04401e+07,-30.3099
7.04835e+07,-30.3063
7.05268e+07,-19.4557
7.05702e+07,-17.5395
7.06135e+07,-17.2559
7.06569e+07,-15.1759
7.07002e+07,-15.9308
7.07436e+07,-15.2955
7.07869e+07,-15.8656
7.08303e+07,-16.6267
7.08736e+07,-17.6805
7.0917e+07,-26.8018
7.09603e+07,-32.2649
7.10037e+07,-24.1706
7.1047e+07,-22.1212
7.10904e+07,-22.1433
7.11337e+07,-21.7797
7.11771e+07,-22.3006
7.12204e+07,-23.4568
7.12638e+07,-29.279
7.13071e+07,-25.6806
7.13505e+07,-30.4679
7.13938e+07,-30.1176
7.14371e+07,-29.1698
7.14805e+07,-29.9641
7.15238e+07,-33.2926
7.15672e+07,-35.0756
7.16105e+07,-36.5854
7.16539e+07,-38.323
7.16972e+07,-32.586
7.17406e+07,-25.0021
7.17839e+07,-21.3115
7.18273e+07,-21.8974
7.18706e+07,-21.7139
7.1914e+07,-22.3221
7.19573e+07,-22.9472
7.20007e+07,-25.428
7.2044e+07,-26.0257
7.20874e+07,-24.1207
7.21307e+07,-30.2069
7.21741e+07,-31.4786
7.22174e+07,-32.2135
7.22608e+07,-29.7305
7.23041e+07,-33.2757
7.23474e+07,-36.3752
7.23908e+07,-36.8678
7.24341e+07,-34.3498
7.24775e+07,-32.2942
7.25208e+07,-27.7768
7.25642e+07,-19.4443
7.26075e+07,-18.2617
7.26509e+07,-18.4471
7.26942e+07,-17.8188
7.27376e+07,-17.7499
7.27809e+07,-17.1931
7.28243e+07,-20.9064
7.28676e+07,-21.9947
7.2911e+07,-25.448
7.29543e+07,-29.0843
7.29977e+07,-27.7876
7.3041e+07,-30.8454
7.30844e+07,-31.9249
7.31277e+07,-30.9047
7.31711e+07,-37.902
7.32144e+07,-38.1679
7.32578e+07,-38.9238
7.33011e+07,-37.3588
7.33444e+07,-24.7201
7.33878e+07,-21.9102
7.34311e+07,-19.9711
7.34745e+07,-18.1858
7.35178e+07,-18.126
7.35612e+07,-18.252
7.36045e+07,-17.2959
7.36479e+07,-18.1105
7.36912e+07,-21.9888
7.37346e+07,-31.2952
7.37779e+07,-32.077
7.38213e+07,-33.3058
7.38646e+07,-34.1899
7.3908e+07,-35.1255
7.39513e+07,-37.1016
7.39947e+07,-35.1821
7.4038e+07,-34.9488
7.40814e+07,-33.4625
7.41247e+07,-33.264
7.41681e+07,-30.6056
7.42114e+07,-26.5606
7.42548e+07,-24.2478
7.42981e+07,-21.1787
7.43414e+07,-22.768
7.43848e+07,-21.6204
7.44281e+07,-22.2146
7.44715e+07,-21.5037
7.45148e+07,-24.3595
7.45582e+07,-26.2233
7.46015e+07,-26.6065
7.46449e+07,-27.9259
7.46882e+07,-28.5697
7.47316e+07,-27.0414
7.47749e+07,-29.7736
7.48183e+07,-36.3031
7.48616e+07,-36.4032
7.4905e+07,-36.5498
7.49483e+07,-23.0289
7.49917e+07,-19.6051
7.5035e+07,-18.9115
7.50784e+07,-19.2249
7.51217e+07,-18.9194
7.51651e+07,-19.0686
7.52084e+07,-20.2303
7.52518e+07,-21.2988
7.52951e+07,-29.7842
7.53384e+07,-30.1601
7.53818e+07,-32.2205
7.54251e+07,-29.8036
7.54685e+07,-31.8138
7.55118e+07,-34.5965
7.55552e+07,-37.4977
7.55985e+07,-38.7896
7.56419e+07,-37.7431
7.56852e+07,-36.4716
7.57286e+07,-27.9805
7.57719e+07,-24.2528
7.58153e+07,-26.9178
7.58586e+07,-21.6699
7.5902e+07,-22.022
7.59453e+07,-22.2691
7.59887e+07,-22.1823
7.6032e+07,-21.4774
7.60754e+07,-24.017
7.61187e+07,-23.0857
7.61621e+07,-30.4036
7.62054e+07,-31.5729
7.62487e+07,-30.7111
7.62921e+07,-32.6626
7.63354e+07,-35.5994
7.63788e+07,-38.4096
7.64221e+07,-35.6938
7.64655e+07,-35.1386
7.65088e+07,-29.6094
7.65522e+07,-25.1895
7.65955e+07,-24.2999
7.66389e+07,-16.5328
7.66822e+07,-16.0915
7.67256e+07,-18.316
7.67689e+07,-17.7993
7.68123e+07,-16.7058
7.68556e+07,-18.9167
7.6899e+07,-28.2191
7.69423e+07,-29.4602
7.69857e+07,-29.9052
7.7029e+07,-30.1222
7.70724e+07,-31.7445
7.71157e+07,-30.5672
7.71591e+07,-34.3069
7.72024e+07,-35.0537
7.72457e+07,-35.9685
7.72891e+07,-34.9555
7.73324e+07,-31.4561
7.73758e+07,-28.8486
7.74191e+07,-24.5458
7.74625e+07,-22.0607
7.75058e+07,-23.1127
7.75492e+07,-21.6784
7.75925e+07,-21.8851
7.76359e+07,-23.2839
7.76792e+07,-22.6803
7.77226e+07,-28.6098
7.77659e+07,-31.5068
7.78093e+07,-22.211
7.78526e+07,-22.1401
7.7896e+07,-21.8697
7.79393e+07,-21.8515
7.79827e+07,-22.6505
7.8026e+07,-22.1433
7.80694e+07,-26.0735
7.81127e+07,-35.033
7.81561e+07,-22.3096
7.81994e+07,-14.5257
7.82427e+07,-14.0462
7.82861e+07,-13.1405
7.83294e+07,-12.7249
7.83728e+07,-13.8351
7.84161e+07,-13.6024
7.84595e+07,-23.5898
7.85028e+07,-23.9349
7.85462e+07,-23.1736
7.85895e+07,-24.1314
7.86329e+07,-25.5448
7.86762e+07,-24.5946
7.87196e+07,-25.5851
7.87629e+07,-26.9355
7.88063e+07,-31.8725
7.88496e+07,-36.2316
7.8893e+07,-34.9629
7.89363e+07,-27.6663
7.89797e+07,-20.1204
7.9023e+07,-19.1962
7.90664e+07,-19.4483
7.91097e+07,-20.5062
7.91531e+07,-19.6495
7.91964e+07,-21.051
7.92397e+07,-20.646
7.92831e+07,-26.8476
7.93264e+07,-26.3756
7.93698e+07,-26.5054
7.94131e+07,-26.1755
7.94565e+07,-26.9612
7.94998e+07,-29.5315
7.95432e+07,-28.8909
7.95865e+07,-29.0384
7.96299e+07,-28.6766
7.96732e+07,-36.9668
7.97166e+07,-34.5504
7.97599e+07,-19.8873
7.98033e+07,-19.0788
7.98466e+07,-19.3793
7.989e+07,-19.2377
7.99333e+07,-19.1156
7.99767e+07,-20.1947
8.002e+07,-22.0117
8.00634e+07,-26.7134
8.01067e+07,-32.8901
8.01501e+07,-33.1253
8.01934e+07,-32.9797
8.02367e+07,-34.4227
8.02801e+07,-34.3629
8.03234e+07,-32.7002
8.03668e+07,-35.9843
8.04101e+07,-35.3328
8.04535e+07,-36.7492
8.04968e+07,-33.176
8.05402e+07,-30.7296
8.05835e+07,-19.9615
8.06269e+07,-18.12
8.06702e+07,-17.9539
8.07136e+07,-17.9386
8.07569e+07,-17.5751
8.08003e+07,-18.2331
8.08436e+07,-18.9391
8.0887e+07,-22.6201
8.09303e+07,-24.2562
8.09737e+07,-22.8647
8.1017e+07,-23.7677
8.10604e+07,-24.4217
8.11037e+07,-25.7387
8.1147e+07,-24.5323
8.11904e+07,-27.9999
8.12337e+07,-34.2439
8.12771e+07,-35.4559
8.13204e+07,-36.7101
8.13638e+07,-24.1185
8.14071e+07,-25.0172
8.14505e+07,-23.2519
8.14938e+07,-19.7015
8.15372e+07,-18.8081
8.15805e+07,-20.1015
8.16239e+07,-21.8301
8.16672e+07,-22.0385
8.17106e+07,-25.7445
8.17539e+07,-25.5941
8.17973e+07,-26.2663
8.18406e+07,-26.599
8.1884e+07,-25.5518
8.19273e+07,-28.3108
8.19707e+07,-29.9446
8.2014e+07,-26.2635
8.20574e+07,-33.8245
8.21007e+07,-29.3888
8.2144e+07,-22.7591
8.21874e+07,-15.4216
8.22307e+07,-14.1294
8.22741e+07,-12.3893
8.23174e+07,-11.4967
8.23608e+07,-11.0559
8.24041e+07,-13.136
8.24475e+07,-12.2945
8.24908e+07,-20.7653
8.25342e+07,-31.3319
8.25775e+07,-34.0533
8.26209e+07,-36.726
8.26642e+07,-35.5155
8.27076e+07,-35.5686
8.27509e+07,-34.5933
8.27943e+07,-37.6195
8.28376e+07,-32.8997
8.2881e+07,-31.0609
8.29243e+07,-20.6952
8.29677e+07,-20.1852
8.3011e+07,-18.2828
8.30544e+07,-17.4121
8.30977e+07,-17.1745
8.3141e+07,-17.6101
8.31844e+07,-18.1786
8.32277e+07,-18.2025
8.32711e+07,-18.3651
8.33144e+07,-20.0235
8.33578e+07,-39.72
8.34011e+07,-37.5397
8.34445e+07,-37.2624
8.34878e+07,-34.3892
8.35312e+07,-37.0645
8.35745e+07,-36.8561
8.36179e+07,-35.0316
8.36612e+07,-34.2426
8.37046e+07,-32.8941
8.37479e+07,-34.246
8.37913e+07,-23.8949
8.38346e+07,-22.8948
8.3878e+07,-23.4767
8.39213e+07,-23.7672
8.39647e+07,-23.0261
8.4008e+07,-24.4117
8.40514e+07,-26.2439
8.40947e+07,-31.4783
8.4138e+07,-35.9669
8.41814e+07,-36.9692
8.42247e+07,-40.5148
8.42681e+07,-40.7793
8.43114e+07,-40.83
8.43548e+07,-39.9548
8.43981e+07,-24.3258
8.44415e+07,-18.0461
8.44848e+07,-14.4351
8.45282e+07,-12.319
8.45715e+07,-7.39724
8.46149e+07,-4.79038
8.46582e+07,-3.78616
8.47016e+07,-5.18968
8.47449e+07,-3.54474
8.47883e+07,-4.35001
8.48316e+07,-4.12614
8.4875e+07,-4.72376
8.49183e+07,-10.8863
8.49617e+07,-20.576
8.5005e+07,-20.0613
8.50483e+07,-24.0126
8.50917e+07,-39.6738
8.5135e+07,-40.2115
8.51784e+07,-40.9499
8.52217e+07,-35.682
8.52651e+07,-33.2326
8.53084e+07,-33.1011
8.53518e+07,-29.8185
8.53951e+07,-13.3643
8.54385e+07,-13.3675
8.54818e+07,-12.7507
8.55252e+07,-13.5036
8.55685e+07,-12.662
8.56119e+07,-14.1866
8.56552e+07,-15.4679
8.56986e+07,-24.5639
8.57419e+07,-29.0817
8.57853e+07,-31.349
8.58286e+07,-31.8443
8.5872e+07,-38.5049
8.59153e+07,-39.0494
8.59587e+07,-38.4688
8.6002e+07,-35.9527
8.60453e+07,-34.1482
8.60887e+07,-32.9552
8.6132e+07,-32.0251
8.61754e+07,-33.2267
8.62187e+07,-35.2584
8.62621e+07,-37.9604
8.63054e+07,-36.3125
8.63488e+07,-37.6801
8.63921e+07,-31.1882
8.64355e+07,-28.9171
8.64788e+07,-27.8952
8.65222e+07,-26.8225
8.65655e+07,-27.9937
8.66089e+07,-29.1822
8.66522e+07,-28.9623
8.66956e+07,-33.8272
8.67389e+07,-40.4964
8.67823e+07,-30.6547
8.68256e+07,-29.3285
8.6869e+07,-27.7668
8.69123e+07,-27.2351
8.69557e+07,-28.6059
8.6999e+07,-29.1801
8.70423e+07,-29.3039
8.70857e+07,-32.1427
8.7129e+07,-38.2123
8.71724e+07,-41.1006
8.72157e+07,-42.3236
8.72591e+07,-41.3591
8.73024e+07,-39.5993
8.73458e+07,-40.6661
8.73891e+07,-41.3629
8.74325e+07,-38.1421
8.74758e+07,-38.7314
8.75192e+07,-37.8005
8.75625e+07,-36.7684
8.76059e+07,-34.0266
8.76492e+07,-31.3859
8.76926e+07,-25.859
8.77359e+07,-24.9092
8.77793e+07,-24.528
8.78226e+07,-27.5201
8.7866e+07,-35.9095
8.79093e+07,-39.1725
8.79527e+07,-39.4356
8.7996e+07,-36.9836
8.80393e+07,-35.7875
8.80827e+07,-31.6669
8.8126e+07,-32.8518
8.81694e+07,-32.8878
8.82127e+07,-34.2481
8.82561e+07,-38.9444
8.82994e+07,-37.5851
8.83428e+07,-35.6732
8.83861e+07,-21.2231
8.84295e+07,-6.38523
8.84728e+07,16.9715
8.85162e+07,16.9036
8.85595e+07,17.1314
8.86029e+07,16.9533
8.86462e+07,-25.3065
8.86896e+07,-34.3448
8.87329e+07,-34.8244
8.87763e+07,-36.475
8.88196e+07,-34.1732
8.8863e+07,-34.9388
8.89063e+07,-29.2747
8.89496e+07,-30.9113
8.8993e+07,-34.0622
8.90363e+07,-37.021
8.90797e+07,-34.8648
8.9123e+07,-32.5293
8.91664e+07,-30.9824
8.92097e+07,-24.817
8.92531e+07,-23.643
8.92964e+07,-23.1643
8.93398e+07,-22.4707
8.93831e+07,-23.7716
8.94265e+07,-24.8164
8.94698e+07,-27.7082
8.95132e+07,-37.1318
8.95565e+07,-37.4237
8.95999e+07,-39.1257
8.96432e+07,-44.551
8.96866e+07,-39.8236
8.97299e+07,-40.7406
8.97733e+07,-42.41
8.98166e+07,-44.9385
8.986e+07,-42.1136
8.99033e+07,-42.6386
8.99466e+07,-41.0686
8.999e+07,-42.8043
9.00333e+07,-30.1392
9.00767e+07,-25.8145
9.012e+07,-25.4434
9.01634e+07,-27.639
9.02067e+07,-30.0057
9.02501e+07,-41.5958
9.02934e+07,-42.7936
9.03368e+07,-43.2015
9.03801e+07,-43.5863
9.04235e+07,-38.8503
9.04668e+07,-25.8567
9.05102e+07,-25.0488
9.05535e+07,-25.4002
9.05969e+07,-27.8184
9.06402e+07,-43.6017
9.06836e+07,-42.2119
9.07269e+07,-39.1905
9.07703e+07,-37.5889
9.08136e+07,-35.429
9.0857e+07,-31.0639
9.09003e+07,-30.3715
9.09436e+07,-30.6843
9.0987e+07,-30.3854
9.10303e+07,-31.7824
9.10737e+07,-35.0367
9.1117e+07,-36.3644
9.11604e+07,-41.3065
9.12037e+07,-44.5828
9.12471e+07,-43.0051
9.12904e+07,-42.9047
9.13338e+07,-28.0955
9.13771e+07,-29.3313
9.14205e+07,-39.6732
9.14638e+07,-28.3742
9.15072e+07,-12.2283
9.15505e+07,-12.9113
9.15939e+07,-35.0574
9.16372e+07,-34.917
9.16806e+07,-31.1449
9.17239e+07,-30.2035
9.17673e+07,-32.25
9.18106e+07,-35.2241
9.1854e+07,-38.5604
9.18973e+07,-41.604
9.19406e+07,-41.0106
9.1984e+07,-42.8828
9.20273e+07,-44.926
9.20707e+07,-44.6838
9.2114e+07,-22.8685
9.21574e+07,-21.4632
9.22007e+07,-22.276
9.22441e+07,-6.12291
9.22874e+07,-5.62136
9.23308e+07,-5.01134
9.23741e+07,-6.91426
9.24175e+07,-14.4726
9.24608e+07,-20.7298
9.25042e+07,-20.8238
9.25475e+07,-27.5552
9.25909e+07,-33.911
9.26342e+07,-37.4123
9.26776e+07,-38.2871
9.27209e+07,-41.2814
9.27643e+07,-43.1176
9.28076e+07,-44.6695
9.2851e+07,-43.3243
9.28943e+07,-42.9351
9.29376e+07,-35.2892
9.2981e+07,-37.9611
9.30243e+07,-35.7537
9.30677e+07,-26.415
9.3111e+07,-24.3759
9.31544e+07,-23.7803
9.31977e+07,-24.9454
9.32411e+07,-38.1777
9.32844e+07,-35.6723
9.33278e+07,-35.5131
9.33711e+07,-35.9141
9.34145e+07,-37.6957
9.34578e+07,-39.1504
9.35012e+07,-34.7913
9.35445e+07,-34.9715
9.35879e+07,-38.0503
9.36312e+07,-43.0439
9.36746e+07,-38.0729
9.37179e+07,-36.9297
9.37613e+07,-34.2693
9.38046e+07,-34.816
9.38479e+07,-18.5635
9.38913e+07,-17.0198
9.39346e+07,-16.1415
9.3978e+07,-15.8703
9.40213e+07,-25.6501
9.40647e+07,-32.0612
9.4108e+07,-31.509
9.41514e+07,-35.5428
9.41947e+07,-37.721
9.42381e+07,-40.6737
9.42814e+07,-37.2657
9.43248e+07,-34.4884
9.43681e+07,-34.6953
9.44115e+07,-42.1418
9.44548e+07,-41.7397
9.44982e+07,-39.4506
9.45415e+07,-29.8069
9.45849e+07,-31.7489
9.46282e+07,-22.284
9.46716e+07,-9.93882
9.47149e+07,-9.62892
9.47583e+07,-11.7507
9.48016e+07,-17.0599
9.48449e+07,-30.5485
9.48883e+07,-29.9823
9.49316e+07,-30.4062
9.4975e+07,-34.8245
9.50183e+07,-35.7986
9.50617e+07,-35.2335
9.5105e+07,-29.5291
9.51484e+07,-29.7953
9.51917e+07,-34.1589
9.52351e+07,-36.7345
9.52784e+07,-34.7374
9.53218e+07,-32.6533
9.53651e+07,-34.0136
9.54085e+07,-36.0887
9.54518e+07,-19.2736
9.54952e+07,-16.5817
9.55385e+07,-17.9627
9.55819e+07,-23.3876
9.56252e+07,-40.3551
9.56686e+07,-37.594
9.57119e+07,-36.2094
9.57553e+07,-36.4577
9.57986e+07,-38.6926
9.58419e+07,-38.5552
9.58853e+07,-40.6152
9.59286e+07,-36.4287
9.5972e+07,-35.1713
9.60153e+07,-34.1858
9.60587e+07,-32.9318
9.6102e+07,-33.6068
9.61454e+07,-27.8327
9.61887e+07,-27.8678
9.62321e+07,-19.3922
9.62754e+07,-18.3677
9.63188e+07,-17.9985
9.63621e+07,-17.7545
9.64055e+07,-17.4458
9.64488e+07,-34.8007
9.64922e+07,-33.3343
9.65355e+07,-33.7471
9.65789e+07,-36.8791
9.66222e+07,-36.2439
9.66656e+07,-35.3391
9.67089e+07,-35.6107
9.67523e+07,-35.0712
9.67956e+07,-34.8273
9.68389e+07,-38.6131
9.68823e+07,-37.7271
9.69256e+07,-34.926
9.6969e+07,-35.7667
9.70123e+07,-37.5147
9.70557e+07,-28.4848
9.7099e+07,-21.6583
9.71424e+07,-17.791
9.71857e+07,-18.0931
9.72291e+07,-32.008
9.72724e+07,-34.5428
9.73158e+07,-34.5733
9.73591e+07,-35.5723
9.74025e+07,-33.9329
9.74458e+07,-30.8536
9.74892e+07,-29.9783
9.75325e+07,-29.7105
9.75759e+07,-30.6974
9.76192e+07,-34.8407
9.76626e+07,-31.7915
9.77059e+07,-31.9668
9.77492e+07,-32.2801
9.77926e+07,-31.1393
9.78359e+07,-31.7452
9.78793e+07,-25.4302
9.79226e+07,-21.5724
9.7966e+07,-20.2104
9.80093e+07,-19.8887
9.80527e+07,-33.9846
9.8096e+07,-33.1005
9.81394e+07,-34.3405
9.81827e+07,-34.4965
9.82261e+07,-33.821
9.82694e+07,-34.5152
9.83128e+07,-37.9292
9.83561e+07,-40.0474
9.83995e+07,-32.6769
9.84428e+07,-30.7048
9.84862e+07,-30.5889
9.85295e+07,-28.981
9.85729e+07,-29.1885
9.86162e+07,-32.9135
9.86596e+07,-28.3999
9.87029e+07,-14.6197
9.87462e+07,-14.5599
9.87896e+07,-29.5649
9.88329e+07,-39.3053
9.88763e+07,-33.4462
9.89196e+07,-34.4509
9.8963e+07,-38.5312
9.90063e+07,-40.4655
9.90497e+07,-40.6216
9.9093e+07,-34.7364
9.91364e+07,-21.8447
9.91797e+07,-42.9576
9.92231e+07,-39.0535
9.92664e+07,-38.2949
9.93098e+07,-38.4491
9.93531e+07,-35.129
9.93965e+07,-36.313
9.94398e+07,-24.1375
9.94832e+07,-22.8507
9.95265e+07,-23.3333
9.95699e+07,-27.1089
9.96132e+07,-31.3999
9.96566e+07,-35.5465
9.96999e+07,-34.4676
9.97432e+07,-36.3636
9.97866e+07,-37.741
9.98299e+07,-40.0468
9.98733e+07,-40.9363
9.99166e+07,-37.3733
9.996e+07,-38.1617
1.00003e+08,-41.2691
1.00047e+08,-35.0114
1.0009e+08,-33.8087
1.00133e+08,-36.1716
1.00177e+08,-35.4322
1.0022e+08,-30.3076
1.00263e+08,-15.0881
1.00307e+08,-14.8024
1.0035e+08,-16.0987
1.00393e+08,-18.507
1.00437e+08,-35.0386
1.0048e+08,-38.271
1.00524e+08,-37.7114
1.00567e+08,-38.5479
1.0061e+08,-38.7036
1.00654e+08,-39.7892
1.00697e+08,-39.6093
1.0074e+08,-38.3173
1.00784e+08,-39.8168
1.00827e+08,-39.9438
1.0087e+08,-37.4157
1.00914e+08,-32.9865
1.00957e+08,-33.3683
1.01e+08,-33.0955
1.01044e+08,-26.2642
1.01087e+08,-18.925
1.0113e+08,-22.2083
1.01174e+08,-21.222
1.01217e+08,-25.142
1.0126e+08,-36.3405
1.01304e+08,-37.5457
1.01347e+08,-39.6555
1.0139e+08,-40.964
1.01434e+08,-41.8608
1.01477e+08,-41.9633
1.01521e+08,-42.1446
1.01564e+08,-41.7721
1.01607e+08,-41.8559
1.01651e+08,-39.0885
1.01694e+08,-38.7191
1.01737e+08,-34.6861
1.01781e+08,-34.8191
1.01824e+08,-33.7218
1.01867e+08,-20.2148
1.01911e+08,-18.157
1.01954e+08,-17.0693
1.01997e+08,-17.2411
1.02041e+08,-35.5849
1.02084e+08,-36.2494
1.02127e+08,-36.7273
1.02171e+08,-38.5222
1.02214e+08,-40.4716
1.02257e+08,-36.6049
1.02301e+08,-35.1084
1.02344e+08,-35.8554
1.02387e+08,-36.1422
1.02431e+08,-34.555
1.02474e+08,-34.2781
1.02518e+08,-32.1049
1.02561e+08,-31.9432
1.02604e+08,-34.5278
1.02648e+08,-20.1698
1.02691e+08,-20.752
1.02734e+08,-24.6887
1.02778e+08,-26.9975
1.02821e+08,-41.8746
1.02864e+08,-40.5993
1.02908e+08,-39.3901
1.02951e+08,-38.7032
1.02994e+08,-39.7304
1.03038e+08,-39.1916
1.03081e+08,-39.4398
1.03124e+08,-41.306
1.03168e+08,-41.4317
1.03211e+08,-40.8871
1.03254e+08,-38.9814
1.03298e+08,-36.8527
1.03341e+08,-33.9126
1.03384e+08,-34.9377
1.03428e+08,-26.2818
1.03471e+08,-16.9256
1.03515e+08,-17.5863
1.03558e+08,-18.6216
1.03601e+08,-19.469
1.03645e+08,-37.2003
1.03688e+08,-37.9451
1.03731e+08,-36.6372
1.03775e+08,-38.4186
1.03818e+08,-39.58
1.03861e+08,-40.728
1.03905e+08,-41.814
1.03948e+08,-41.761
1.03991e+08,-41.51
1.04035e+08,-37.3828
1.04078e+08,-35.264
1.04121e+08,-34.44
1.04165e+08,-33.1695
1.04208e+08,-35.7881
1.04251e+08,-24.9249
1.04295e+08,-18.8312
1.04338e+08,-18.4292
1.04381e+08,-20.0142
1.04425e+08,-25.5397
1.04468e+08,-34.1894
1.04512e+08,-32.0074
1.04555e+08,-41.3563
1.04598e+08,-42.4486
1.04642e+08,-42.0175
1.04685e+08,-39.3784
1.04728e+08,-37.1765
1.04772e+08,-39.2951
1.04815e+08,-38.5602
1.04858e+08,-38.3175
1.04902e+08,-35.9263
1.04945e+08,-34.5805
1.04988e+08,-38.5779
1.05032e+08,-31.1382
1.05075e+08,-23.6288
1.05118e+08,-23.1681
1.05162e+08,-22.4608
1.05205e+08,-24.0902
1.05248e+08,-42.0656
1.05292e+08,-39.8498
1.05335e+08,-42.2864
1.05378e+08,-42.6483
1.05422e+08,-41.3958
1.05465e+08,-42.161
1.05509e+08,-37.2733
1.05552e+08,-37.0994
1.05595e+08,-39.4428
1.05639e+08,-39.3192
1.05682e+08,-39.207
1.05725e+08,-34.321
1.05769e+08,-33.1731
1.05812e+08,-34.881
1.05855e+08,-20.5863
1.05899e+08,-20.8388
1.05942e+08,-22.3828
1.05985e+08,-21.603
1.06029e+08,-33.771
1.06072e+08,-33.2346
1.06115e+08,-32.5344
1.06159e+08,-29.7455
1.06202e+08,-29.5547
1.06245e+08,-18.7047
1.06289e+08,-15.7343
1.06332e+08,-16.1751
1.06375e+08,-16.5723
1.06419e+08,-19.5107
1.06462e+08,-31.4019
1.06506e+08,-30.0004
1.06549e+08,-31.4163
1.06592e+08,-38.2684
1.06636e+08,-37.642
1.06679e+08,-37.378
1.06722e+08,-38.5094
1.06766e+08,-39.2697
1.06809e+08,-38.4669
1.06852e+08,-39.64
1.06896e+08,-37.905
1.06939e+08,-39.775
1.06982e+08,-38.8287
1.07026e+08,-38.554
1.07069e+08,-39.7154
1.07112e+08,-36.8494
1.07156e+08,-38.3614
1.07199e+08,-36.3497
1.07242e+08,-35.4952
1.07286e+08,-34.9088
1.07329e+08,-33.8076
1.07372e+08,-33.034
1.07416e+08,-35.3004
1.07459e+08,-21.2651
1.07503e+08,-19.3518
1.07546e+08,-21.5625
1.07589e+08,-23.0447
1.07633e+08,-31.319
1.07676e+08,-39.3533
1.07719e+08,-37.9139
1.07763e+08,-38.9974
1.07806e+08,-39.0905
1.07849e+08,-39.6959
1.07893e+08,-32.7337
1.07936e+08,-32.8651
1.07979e+08,-32.9826
1.08023e+08,-35.2197
1.08066e+08,-35.6306
1.08109e+08,-33.8991
1.08153e+08,-33.7109
1.08196e+08,-34.8962
1.08239e+08,-38.049
1.08283e+08,-39.1801
1.08326e+08,-40.3193
1.08369e+08,-40.6377
1.08413e+08,-38.5957
1.08456e+08,-39.5601
1.08499e+08,-39.8197
1.08543e+08,-38.2306
1.08586e+08,-39.3142
1.0863e+08,-39.4646
1.08673e+08,-38.4437
1.08716e+08,-39.5593
1.0876e+08,-39.498
1.08803e+08,-39.297
1.08846e+08,-38.2826
1.0889e+08,-36.2209
1.08933e+08,-36.5498
1.08976e+08,-37.1593
1.0902e+08,-38.7449
1.09063e+08,-38.4426
1.09106e+08,-38.8793
1.0915e+08,-37.8817
1.09193e+08,-37.102
1.09236e+08,-39.7093
1.0928e+08,-38.3673
1.09323e+08,-38.4328
1.09366e+08,-38.9482
1.0941e+08,-38.2341
1.09453e+08,-39.1572
1.09496e+08,-39.6739
1.0954e+08,-38.0081
1.09583e+08,-39.4991
1.09627e+08,-38.1634
1.0967e+08,-37.4041
1.09713e+08,-36.983
1.09757e+08,-36.2301
1.098e+08,-36.9045
1.09843e+08,-38.4494
1.09887e+08,-36.9017
1.0993e+08,-37.0512
1.09973e+08,-39.1168
1.10017e+08,-38.2323
1.1006e+08,-35.5129
1.10103e+08,-35.8313
1.10147e+08,-36.9438
1.1019e+08,-35.8422
1.10233e+08,-37.9891
1.10277e+08,-36.8981
1.1032e+08,-38.3703
1.10363e+08,-39.5445
1.10407e+08,-39.6748
1.1045e+08,-38.0141
1.10493e+08,-36.8799
1.10537e+08,-37.2225
1.1058e+08,-37.2224
1.10624e+08,-38.3101
1.10667e+08,-37.3987
1.1071e+08,-39.1504
1.10754e+08,-38.632
1.10797e+08,-37.5027
1.1084e+08,-37.0588
1.10884e+08,-39.6631
1.10927e+08,-39.043
1.1097e+08,-38.6775
1.11014e+08,-39.9651
1.11057e+08,-38.8423
1.111e+08,-40.1858
1.11144e+08,-38.8358
1.11187e+08,-39.4338
1.1123e+08,-38.6398
1.11274e+08,-37.9975
1.11317e+08,-37.9775
1.1136e+08,-36.9303
1.11404e+08,-38.2843
1.11447e+08,-38.987
1.1149e+08,-40.598
1.11534e+08,-39.6613
1.11577e+08,-39.2364
1.11621e+08,-40.366
1.11664e+08,-39.623
1.11707e+08,-39.177
1.11751e+08,-38.8184
1.11794e+08,-39.0954
1.11837e+08,-39.3749
1.11881e+08,-39.3548
1.11924e+08,-39.6532
1.11967e+08,-39.2781
1.12011e+08,-39.6117
1.12054e+08,-38.9566
1.12097e+08,-39.0881
1.12141e+08,-39.577
1.12184e+08,-39.5155
1.12227e+08,-39.3906
1.12271e+08,-38.8326
1.12314e+08,-39.1069
1.12357e+08,-39.3035
1.12401e+08,-38.3199
1.12444e+08,-39.0774
1.12487e+08,-38.2107
1.12531e+08,-38.2752
1.12574e+08,-38.8035
1.12618e+08,-37.7463
1.12661e+08,-39.5176
1.12704e+08,-39.0734
1.12748e+08,-39.4462
1.12791e+08,-38.3544
1.12834e+08,-37.5592
1.12878e+08,-37.8853
1.12921e+08,-38.5861
1.12964e+08,-39.3851
1.13008e+08,-36.9966
1.13051e+08,-38.7118
1.13094e+08,-38.3268
1.13138e+08,-39.0432
1.13181e+08,-38.6006
1.13224e+08,-38.5274
1.13268e+08,-38.4037
1.13311e+08,-38.5059
1.13354e+08,-38.6862
1.13398e+08,-38.5725
1.13441e+08,-39.8374
1.13484e+08,-39.2772
1.13528e+08,-39.7844
1.13571e+08,-39.211
1.13615e+08,-38.5963
1.13658e+08,-38.097
1.13701e+08,-37.9736
1.13745e+08,-37.0917
1.13788e+08,-37.7652
1.13831e+08,-38.248
1.13875e+08,-38.6786
1.13918e+08,-38.6384
1.13961e+08,-39.0699
1.14005e+08,-38.6967
1.14048e+08,-38.8811
1.14091e+08,-38.5705
1.14135e+08,-39.034
1.14178e+08,-39.8495
1.14221e+08,-39.3816
1.14265e+08,-39.2123
1.14308e+08,-39.5915
1.14351e+08,-40.306
1.14395e+08,-40.6246
1.14438e+08,-40.4941
1.14481e+08,-39.5397
1.14525e+08,-39.7222
1.14568e+08,-40.0305
1.14612e+08,-39.3038
1.14655e+08,-41.7265
1.14698e+08,-40.7836
1.14742e+08,-40.709
1.14785e+08,-41.5653
1.14828e+08,-40.8148
1.14872e+08,-40.7713
1.14915e+08,-41.0264
1.14958e+08,-39.2301
1.15002e+08,-40.8658
1.15045e+08,-39.5244
1.15088e+08,-40.4505
1.15132e+08,-39.6684
1.15175e+08,-40.7078
1.15218e+08,-40.6765
1.15262e+08,-38.8904
1.15305e+08,-38.7614
1.15348e+08,-37.3086
1.15392e+08,-39.8037
1.15435e+08,-41.1637
1.15478e+08,-41.4734
1.15522e+08,-37.8835
1.15565e+08,-40.5558
1.15609e+08,-41.3882
1.15652e+08,-41.6886
1.15695e+08,-39.5431
1.15739e+08,-40.4259
1.15782e+08,-32.8715
1.15825e+08,-32.7612
1.15869e+08,-32.257
1.15912e+08,-34.0731
1.15955e+08,-39.1945
1.15999e+08,-37.5205
1.16042e+08,-37.0186
1.16085e+08,-36.4912
1.16129e+08,-38.0814
1.16172e+08,-38.8973
1.16215e+08,-38.6381
1.16259e+08,-37.8617
1.16302e+08,-38.2528
1.16345e+08,-39.3924
1.16389e+08,-39.6234
1.16432e+08,-39.7099
1.16475e+08,-39.8713
1.16519e+08,-39.2686
1.16562e+08,-39.8463
1.16606e+08,-39.7828
1.16649e+08,-40.6492
1.16692e+08,-40.0029
1.16736e+08,-39.8352
1.16779e+08,-39.6603
1.16822e+08,-39.5912
1.16866e+08,-39.023
1.16909e+08,-39.3272
1.16952e+08,-38.4775
1.16996e+08,-38.3634
1.17039e+08,-36.1771
1.17082e+08,-37.2564
1.17126e+08,-38.4649
1.17169e+08,-36.5993
1.17212e+08,-38.5192
1.17256e+08,-38.6382
1.17299e+08,-37.479
1.17342e+08,-37.8334
1.17386e+08,-37.4144
1.17429e+08,-40.4061
1.17472e+08,-39.0665
1.17516e+08,-39.5277
1.17559e+08,-38.7644
1.17603e+08,-39.0081
1.17646e+08,-40.6425
1.17689e+08,-38.2489
1.17733e+08,-38.1843
1.17776e+08,-38.7171
1.17819e+08,-38.3372
1.17863e+08,-39.3512
1.17906e+08,-39.9385
1.17949e+08,-39.4383
1.17993e+08,-39.867
1.18036e+08,-38.7944
1.18079e+08,-37.7809
1.18123e+08,-37.7391
1.18166e+08,-37.5632
1.18209e+08,-40.2469
1.18253e+08,-39.8274
1.18296e+08,-38.7623
1.18339e+08,-39.0221
1.18383e+08,-37.237
1.18426e+08,-39.9621
1.18469e+08,-37.7021
1.18513e+08,-38.6501
1.18556e+08,-38.6315
1.186e+08,-38.6529
1.18643e+08,-39.7875
1.18686e+08,-40.1608
1.1873e+08,-40.0949
1.18773e+08,-38.8773
1.18816e+08,-39.7835
1.1886e+08,-39.1242
1.18903e+08,-36.6898
1.18946e+08,-37.8766
1.1899e+08,-38.7199
1.19033e+08,-37.9529
1.19076e+08,-38.1339
1.1912e+08,-37.8003
1.19163e+08,-38.4471
1.19206e+08,-38.8856
1.1925e+08,-39.8387
1.19293e+08,-39.1654
1.19336e+08,-39.2805
1.1938e+08,-38.4616
1.19423e+08,-40.7663
1.19466e+08,-41.0908
1.1951e+08,-39.9018
1.19553e+08,-40.3963
1.19597e+08,-39.9803
1.1964e+08,-39.68
1.19683e+08,-39.7321
1.19727e+08,-38.32
1.1977e+08,-38.2195
1.19813e+08,-37.1055
1.19857e+08,-37.2669
1.199e+08,-38.421
1.19943e+08,-37.6676
1.19987e+08,-37.5989
1.2003e+08,-36.5985
1.20073e+08,-38.3935
1.20117e+08,-38.7167
1.2016e+08,-37.9525
1.20203e+08,-39.9356
1.20247e+08,-39.748
1.2029e+08,-39.1006
1.20333e+08,-40.5079
1.20377e+08,-40.3751
1.2042e+08,-39.3507
1.20463e+08,-40.9946
1.20507e+08,-41.2945
1.2055e+08,-39.5533
1.20594e+08,-40.4198
1.20637e+08,-40.7866
1.2068e+08,-41.0102
1.20724e+08,-40.5566
1.20767e+08,-40.2991
1.2081e+08,-39.464
1.20854e+08,-38.9701
1.20897e+08,-40.3887
1.2094e+08,-40.0996
1.20984e+08,-38.786
1.21027e+08,-38.9408
1.2107e+08,-39.7107
1.21114e+08,-39.3187
1.21157e+08,-38.0643
1.212e+08,-37.0143
1.21244e+08,-38.1919
1.21287e+08,-39.0299
1.2133e+08,-38.9591
1.21374e+08,-38.5775
1.21417e+08,-40.524
1.2146e+08,-40.1346
1.21504e+08,-41.1096
1.21547e+08,-39.8146
1.21591e+08,-40.7092
1.21634e+08,-40.7209
1.21677e+08,-40.7639
1.21721e+08,-41.2452
1.21764e+08,-41.4941
1.21807e+08,-41.3622
1.21851e+08,-40.9303
1.21894e+08,-40.4275
1.21937e+08,-40.6965
1.21981e+08,-39.8913
1.22024e+08,-40.8699
1.22067e+08,-40.4156
1.22111e+08,-39.5592
1.22154e+08,-40.1436
1.22197e+08,-39.3457
1.22241e+08,-39.5966
1.22284e+08,-40.5907
1.22327e+08,-40.8134
1.22371e+08,-40.849
1.22414e+08,-40.3958
1.22457e+08,-39.9866
1.22501e+08,-40.5018
1.22544e+08,-40.3803
1.22588e+08,-39.8718
1.22631e+08,-40.2085
1.22674e+08,-40.609
1.22718e+08,-38.6815
1.22761e+08,-39.5095
1.22804e+08,-39.9964
1.22848e+08,-41.1058
1.22891e+08,-40.2337
1.22934e+08,-39.4344
1.22978e+08,-39.0413
1.23021e+08,-40.304
1.23064e+08,-41.1669
1.23108e+08,-40.4848
1.23151e+08,-40.815
1.23194e+08,-41.7155
1.23238e+08,-41.733
1.23281e+08,-41.4514
1.23324e+08,-41.5025
1.23368e+08,-41.7459
1.23411e+08,-42.301
1.23454e+08,-41.9644
1.23498e+08,-41.1987
1.23541e+08,-41.741
1.23585e+08,-41.3783
1.23628e+08,-40.7702
1.23671e+08,-41.3697
1.23715e+08,-40.9411
1.23758e+08,-38.3324
1.23801e+08,-42.137
1.23845e+08,-42.3186
1.23888e+08,-40.8288
1.23931e+08,-42.1968
1.23975e+08,-42.3466
1.24018e+08,-40.7298
1.24061e+08,-42.081
1.24105e+08,-41.3811
1.24148e+08,-41.6081
1.24191e+08,-40.3081
1.24235e+08,-42.1774
1.24278e+08,-41.6468
1.24321e+08,-42.8016
1.24365e+08,-42.7123
1.24408e+08,-40.9512
1.24451e+08,-42.9671
1.24495e+08,-42.0524
1.24538e+08,-41.7735
1.24582e+08,-42.7462
1.24625e+08,-42.1024
1.24668e+08,-43.2294
1.24712e+08,-42.7211
1.24755e+08,-43.0633
1.24798e+08,-43.2185
1.24842e+08,-43.1094
1.24885e+08,-42.5933
1.24928e+08,-42.4533
1.24972e+08,-43.2442
1.25015e+08,-42.3768
1.25058e+08,-42.9451
1.25102e+08,-42.24
1.25145e+08,-43.1033
1.25188e+08,-43.0775
1.25232e+08,-42.7345
1.25275e+08,-41.6136
1.25318e+08,-42.7441
1.25362e+08,-43.1648
1.25405e+08,-41.9861
1.25448e+08,-42.2391
1.25492e+08,-41.7797
1.25535e+08,-41.882
1.25579e+08,-42.5962
1.25622e+08,-41.5304
1.25665e+08,-41.9491
1.25709e+08,-42.9788
1.25752e+08,-42.1963
1.25795e+08,-41.213
1.25839e+08,-43.0397
1.25882e+08,-40.3747
1.25925e+08,-41.8675
1.25969e+08,-41.9392
1.26012e+08,-40.3367
1.26055e+08,-41.6157
1.26099e+08,-41.3713
1.26142e+08,-41.5505
1.26185e+08,-41.7247
1.26229e+08,-41.5072
1.26272e+08,-42.1623
1.26315e+08,-41.5586
1.26359e+08,-42.2272
1.26402e+08,-42.8557
1.26445e+08,-42.8105
1.26489e+08,-42.0926
1.26532e+08,-41.9738
1.26576e+08,-42.1107
1.26619e+08,-42.2967
1.26662e+08,-42.339
1.26706e+08,-42.5203
1.26749e+08,-42.8999
1.26792e+08,-42.2027
1.26836e+08,-42.6659
1.26879e+08,-41.8157
1.26922e+08,-41.635
1.26966e+08,-41.6175
1.27009e+08,-41.9997
1.27052e+08,-42.9142
1.27096e+08,-42.8137
1.27139e+08,-42.4758
1.27182e+08,-41.8953
1.27226e+08,-42.7586
1.27269e+08,-42.1503
1.27312e+08,-40.236
1.27356e+08,-43.1229
1.27399e+08,-41.5729
1.27442e+08,-41.0073
1.27486e+08,-41.3589
1.27529e+08,-43.237
1.27573e+08,-42.6003
1.27616e+08,-42.4792
1.27659e+08,-42.7475
1.27703e+08,-41.0066
1.27746e+08,-41.8892
1.27789e+08,-42.5221
1.27833e+08,-42.7173
1.27876e+08,-43.4001
1.27919e+08,-41.303
1.27963e+08,-41.4211
1.28006e+08,-43.7041
1.28049e+08,-41.8615
1.28093e+08,-43.8489
1.28136e+08,-41.6491
1.28179e+08,-43.0126
1.28223e+08,-43.0176
1.28266e+08,-41.7674
1.28309e+08,-41.8787
1.28353e+08,-42.4964
1.28396e+08,-42.6517
1.28439e+08,-43.0017
1.28483e+08,-42.7898
1.28526e+08,-42.7302
1.2857e+08,-43.6529
1.28613e+08,-41.0447
1.28656e+08,-42.9047
1.287e+08,-43.4084
1.28743e+08,-42.9095
1.28786e+08,-41.1962
1.2883e+08,-43.1136
1.28873e+08,-41.5212
1.28916e+08,-41.5211
1.2896e+08,-42.0902
1.29003e+08,-42.3798
1.29046e+08,-41.5596
1.2909e+08,-42.4224
1.29133e+08,-40.7902
1.29176e+08,-40.4411
1.2922e+08,-39.3661
1.29263e+08,-40.9658
1.29306e+08,-40.475
1.2935e+08,-40.414
1.29393e+08,-40.7186
1.29436e+08,-39.4296
1.2948e+08,-40.0173
1.29523e+08,-40.6634
1.29567e+08,-40.3605
1.2961e+08,-41.7858
1.29653e+08,-41.6754
1.29697e+08,-40.8283
1.2974e+08,-40.5543
1.29783e+08,-41.0048
1.29827e+08,-40.0091
1.2987e+08,-40.1256
1.29913e+08,-40.2139
1.29957e+08,-39.9224
1.3e+08,-41.1514
