FileType,0
Number of Points,3000
Sweep Time,3e+08
Start Frequency,0
Stop Frequency,1.3e+08
Average Count,1000
Average Type,0
RBW,10000
RBW Filter,0
RBW Filter BW,0
VBW,10000
Sweep Type,0
X Axis Scale,1
PreAmp State,0
Trigger Source,0
Trigger Level,-25
Trigger Edge,0
Trigger Delay Switch,0
Trigger Delay,1
Attenuation,40
Ref Level Offset,0
External Gain,0
Trace Type,0
Detector,0
Trace Math,5
Trace Math Oper1,4
Trace Math Oper2,5
Trace Math Offset,0
Trace Name,0
Full Span,1.3e+08
Y Axis Unit,0
DATA,
0,8.06232
43347.8,-35.0402
86695.6,-26.4181
130043,-22.47
173391,-21.2417
216739,-23.7289
260087,-23.6019
303434,-25.1799
346782,-28.5684
390130,-26.9577
433478,-26.7096
476826,-27.8194
520173,-26.9769
563521,-27.1652
606869,-24.6533
650217,-21.9805
693565,-21.1666
736912,-18.0834
780260,-16.833
823608,-15.4683
866956,-19.877
910303,-19.8766
953651,-21.8954
996999,-21.2087
1.04035e+06,-20.6884
1.08369e+06,-24.2202
1.12704e+06,-26.834
1.17039e+06,-27.4159
1.21374e+06,-26.706
1.25709e+06,-26.2496
1.30043e+06,-25.9847
1.34378e+06,-25.0406
1.38713e+06,-22.4154
1.43048e+06,-21.605
1.47382e+06,-18.6176
1.51717e+06,-14.802
1.56052e+06,-11.5835
1.60387e+06,-12.262
1.64722e+06,-16.0383
1.69056e+06,-19.3047
1.73391e+06,-22.2762
1.77726e+06,-21.3186
1.82061e+06,-21.6702
1.86395e+06,-25.2471
1.9073e+06,-25.918
1.95065e+06,-24.6521
1.994e+06,-24.1265
2.03735e+06,-24.8873
2.08069e+06,-23.3313
2.12404e+06,-21.3646
2.16739e+06,-22.4074
2.21074e+06,-22.0173
2.25408e+06,-20.3202
2.29743e+06,-17.7771
2.34078e+06,-15.3045
2.38413e+06,-14.4555
2.42748e+06,-14.6065
2.47082e+06,-19.2474
2.51417e+06,-23.0235
2.55752e+06,-22.1507
2.60087e+06,-22.6632
2.64421e+06,-23.5247
2.68756e+06,-23.6191
2.73091e+06,-25.9313
2.77426e+06,-24.6164
2.81761e+06,-25.1685
2.86095e+06,-25.153
2.9043e+06,-10.1983
2.94765e+06,-9.80811
2.991e+06,-10.2702
3.03434e+06,-11.1647
3.07769e+06,-13.3861
3.12104e+06,-20.2563
3.16439e+06,-18.8635
3.20774e+06,-18.6648
3.25108e+06,-21.3471
3.29443e+06,-24.9171
3.33778e+06,-26.7889
3.38113e+06,-26.4106
3.42447e+06,-25.7448
3.46782e+06,-27.3015
3.51117e+06,-27.4643
3.55452e+06,-26.6649
3.59787e+06,-26.1414
3.64121e+06,-24.8937
3.68456e+06,-21.255
3.72791e+06,-16.9798
3.77126e+06,-18.652
3.8146e+06,-17.825
3.85795e+06,-19.3346
3.9013e+06,-25.954
3.94465e+06,-23.2277
3.988e+06,-21.5981
4.03134e+06,-23.0036
4.07469e+06,-26.3766
4.11804e+06,-27.9827
4.16139e+06,-27.7066
4.20473e+06,-28.0458
4.24808e+06,-26.6102
4.29143e+06,-26.4396
4.33478e+06,-26.1221
4.37813e+06,-26.3336
4.42147e+06,-24.844
4.46482e+06,-20.7007
4.50817e+06,-11.3111
4.55152e+06,-7.38268
4.59486e+06,-8.05851
4.63821e+06,-8.46886
4.68156e+06,-20.2167
4.72491e+06,-18.2247
4.76826e+06,-14.5116
4.8116e+06,-14.8118
4.85495e+06,-17.1575
4.8983e+06,-27.204
4.94165e+06,-24.6782
4.98499e+06,-25.6686
5.02834e+06,-27.3915
5.07169e+06,-27.7372
5.11504e+06,-29.4558
5.15839e+06,-24.3536
5.20173e+06,-22.1329
5.24508e+06,-17.2913
5.28843e+06,-6.57287
5.33178e+06,-5.42645
5.37513e+06,-5.26595
5.41847e+06,-5.35003
5.46182e+06,-6.63261
5.50517e+06,-20.3334
5.54852e+06,-10.2048
5.59186e+06,-10.8144
5.63521e+06,-11.0154
5.67856e+06,-22.5911
5.72191e+06,-23.0632
5.76526e+06,-21.7429
5.8086e+06,-24.1402
5.85195e+06,-25.8726
5.8953e+06,-27.3493
5.93865e+06,-24.9872
5.98199e+06,-21.9236
6.02534e+06,-22.81
6.06869e+06,-10.0603
6.11204e+06,-6.97124
6.15539e+06,-6.88452
6.19873e+06,-9.02716
6.24208e+06,-9.5106
6.28543e+06,-9.57411
6.32878e+06,-16.753
6.37212e+06,-15.6056
6.41547e+06,-17.9356
6.45882e+06,-20.119
6.50217e+06,-23.4678
6.54552e+06,-19.512
6.58886e+06,-19.2062
6.63221e+06,-20.2521
6.67556e+06,-22.3485
6.71891e+06,-26.7161
6.76225e+06,-25.7347
6.8056e+06,-25.2144
6.84895e+06,-23.9794
6.8923e+06,-12.9587
6.93565e+06,-12.7011
6.97899e+06,-12.587
7.02234e+06,-14.3844
7.06569e+06,-17.8449
7.10904e+06,-18.5646
7.15238e+06,-13.9931
7.19573e+06,-16.6373
7.23908e+06,-23.1242
7.28243e+06,-26.573
7.32578e+06,-24.6487
7.36912e+06,-24.0485
7.41247e+06,-24.5427
7.45582e+06,-25.6822
7.49917e+06,-23.1637
7.54251e+06,-22.3409
7.58586e+06,-22.6715
7.62921e+06,-22.083
7.67256e+06,-23.9267
7.71591e+06,-19.1243
7.75925e+06,-16.5875
7.8026e+06,-16.1099
7.84595e+06,-14.9511
7.8893e+06,-16.1819
7.93264e+06,-22.5783
7.97599e+06,-19.4452
8.01934e+06,-22.4619
8.06269e+06,-23.6632
8.10604e+06,-25.9715
8.14938e+06,-27.4744
8.19273e+06,-26.9374
8.23608e+06,-25.179
8.27943e+06,-22.5167
8.32277e+06,-23.1208
8.36612e+06,-21.6863
8.40947e+06,-22.8379
8.45282e+06,-23.2877
8.49617e+06,-18.4128
8.53951e+06,-13.2164
8.58286e+06,-15.4673
8.62621e+06,-14.5113
8.66956e+06,-14.7189
8.7129e+06,-21.5182
8.75625e+06,-21.3774
8.7996e+06,-23.6887
8.84295e+06,-25.2177
8.8863e+06,-28.3786
8.92964e+06,-26.8876
8.97299e+06,-24.9495
9.01634e+06,-25.4467
9.05969e+06,-25.4912
9.10303e+06,-22.4541
9.14638e+06,-23.5494
9.18973e+06,-21.841
9.23308e+06,-24.2254
9.27643e+06,-23.4065
9.31977e+06,-20.2404
9.36312e+06,-19.1142
9.40647e+06,-19.0587
9.44982e+06,-20.1728
9.49316e+06,-22.8674
9.53651e+06,-24.9181
9.57986e+06,-24.4335
9.62321e+06,-26.085
9.66656e+06,-27.3815
9.7099e+06,-28.0732
9.75325e+06,-29.0202
9.7966e+06,-19.71
9.83995e+06,-21.7742
9.88329e+06,-22.9675
9.92664e+06,-19.4451
9.96999e+06,-19.4089
1.00133e+07,-19.8682
1.00567e+07,-18.4835
1.01e+07,-19.5175
1.01434e+07,-13.3836
1.01867e+07,-12.0082
1.02301e+07,-14.2867
1.02734e+07,-25.5735
1.03168e+07,-23.0566
1.03601e+07,-20.9738
1.04035e+07,-20.8995
1.04468e+07,-22.2852
1.04902e+07,-23.8243
1.05335e+07,-24.0402
1.05769e+07,-24.3424
1.06202e+07,-23.3357
1.06636e+07,-21.8355
1.07069e+07,-21.5561
1.07503e+07,-22.0381
1.07936e+07,-20.2212
1.08369e+07,-21.6561
1.08803e+07,-22.9486
1.09236e+07,-21.1501
1.0967e+07,-22.0292
1.10103e+07,-21.4566
1.10537e+07,-21.8185
1.1097e+07,-21.6552
1.11404e+07,-18.4455
1.11837e+07,-18.2443
1.12271e+07,-18.3456
1.12704e+07,-22.056
1.13138e+07,-23.4373
1.13571e+07,-26.4334
1.14005e+07,-22.9509
1.14438e+07,-24.0199
1.14872e+07,-21.4389
1.15305e+07,-19.2696
1.15739e+07,-18.2747
1.16172e+07,-18.8157
1.16606e+07,-20.6468
1.17039e+07,-17.7804
1.17472e+07,-17.3802
1.17906e+07,-16.0716
1.18339e+07,-16.1924
1.18773e+07,-19.4068
1.19206e+07,-21.549
1.1964e+07,-18.6627
1.20073e+07,-20.6536
1.20507e+07,-22.4471
1.2094e+07,-23.7911
1.21374e+07,-28.5253
1.21807e+07,-29.0536
1.22241e+07,-29.5774
1.22674e+07,-29.1979
1.23108e+07,-27.574
1.23541e+07,-22.3398
1.23975e+07,-24.8454
1.24408e+07,-25.9261
1.24842e+07,-15.6885
1.25275e+07,-14.3355
1.25709e+07,-14.6398
1.26142e+07,-14.9257
1.26576e+07,-15.816
1.27009e+07,-22.8638
1.27442e+07,-22.2795
1.27876e+07,-23.0664
1.28309e+07,-23.1023
1.28743e+07,-24.9696
1.29176e+07,-29.1991
1.2961e+07,-27.2781
1.30043e+07,-27.6927
1.30477e+07,-27.7253
1.3091e+07,-25.9483
1.31344e+07,-25.7332
1.31777e+07,-22.9766
1.32211e+07,-24.1153
1.32644e+07,-15.8703
1.33078e+07,-15.1438
1.33511e+07,-11.6972
1.33945e+07,-11.4308
1.34378e+07,-12.8682
1.34812e+07,-16.2195
1.35245e+07,-24.9406
1.35679e+07,-25.5092
1.36112e+07,-26.7974
1.36546e+07,-28.9005
1.36979e+07,-30.4268
1.37412e+07,-31.1891
1.37846e+07,-31.0626
1.38279e+07,-27.2082
1.38713e+07,-29.351
1.39146e+07,-28.6454
1.3958e+07,-27.4358
1.40013e+07,-25.2875
1.40447e+07,-28.1072
1.4088e+07,-24.7967
1.41314e+07,-22.4109
1.41747e+07,-23.4564
1.42181e+07,-25.5171
1.42614e+07,-29.3691
1.43048e+07,-24.4593
1.43481e+07,-24.9492
1.43915e+07,-26.1539
1.44348e+07,-25.9936
1.44782e+07,-29.1919
1.45215e+07,-29.9255
1.45649e+07,-30.3768
1.46082e+07,-29.8382
1.46516e+07,-23.2345
1.46949e+07,-24.6739
1.47382e+07,-22.1002
1.47816e+07,-20.3703
1.48249e+07,-21.9093
1.48683e+07,-22.7636
1.49116e+07,-15.5157
1.4955e+07,-15.5919
1.49983e+07,-17.1694
1.50417e+07,-15.65
1.5085e+07,-18.3688
1.51284e+07,-29.7654
1.51717e+07,-29.9566
1.52151e+07,-31.9874
1.52584e+07,-32.331
1.53018e+07,-32.1571
1.53451e+07,-31.0733
1.53885e+07,-31.2375
1.54318e+07,-29.5941
1.54752e+07,-21.8056
1.55185e+07,-23.941
1.55619e+07,-22.2837
1.56052e+07,-20.9364
1.56485e+07,-22.0798
1.56919e+07,-19.7619
1.57352e+07,-20.6424
1.57786e+07,-20.0346
1.58219e+07,-21.5984
1.58653e+07,-23.8124
1.59086e+07,-23.2317
1.5952e+07,-30.6912
1.59953e+07,-30.5915
1.60387e+07,-29.7825
1.6082e+07,-31.6409
1.61254e+07,-30.6938
1.61687e+07,-30.9596
1.62121e+07,-28.9398
1.62554e+07,-26.7054
1.62988e+07,-25.0067
1.63421e+07,-23.1507
1.63855e+07,-25.158
1.64288e+07,-23.7066
1.64722e+07,-25.6326
1.65155e+07,-24.7836
1.65589e+07,-23.4885
1.66022e+07,-23.4018
1.66455e+07,-23.055
1.66889e+07,-28.8575
1.67322e+07,-32.0158
1.67756e+07,-31.7909
1.68189e+07,-31.7812
1.68623e+07,-31.876
1.69056e+07,-33.5169
1.6949e+07,-31.0638
1.69923e+07,-31.4203
1.70357e+07,-29.8986
1.7079e+07,-26.7837
1.71224e+07,-26.4641
1.71657e+07,-23.3461
1.72091e+07,-25.8896
1.72524e+07,-26.936
1.72958e+07,-28.8115
1.73391e+07,-21.4583
1.73825e+07,-21.8089
1.74258e+07,-20.9125
1.74692e+07,-25.0632
1.75125e+07,-32.5449
1.75559e+07,-32.6486
1.75992e+07,-31.9581
1.76425e+07,-31.3958
1.76859e+07,-31.646
1.77292e+07,-25.1179
1.77726e+07,-24.2926
1.78159e+07,-23.2558
1.78593e+07,-24.1996
1.79026e+07,-24.4677
1.7946e+07,-22.6358
1.79893e+07,-23.3326
1.80327e+07,-23.9426
1.8076e+07,-25.1738
1.81194e+07,-27.4546
1.81627e+07,-27.6942
1.82061e+07,-27.4262
1.82494e+07,-27.984
1.82928e+07,-31.2394
1.83361e+07,-34.1131
1.83795e+07,-34.5554
1.84228e+07,-34.1764
1.84662e+07,-32.907
1.85095e+07,-33.0919
1.85529e+07,-31.3671
1.85962e+07,-28.2976
1.86395e+07,-30.105
1.86829e+07,-25.2267
1.87262e+07,-25.1555
1.87696e+07,-23.327
1.88129e+07,-25.003
1.88563e+07,-24.4656
1.88996e+07,-13.8239
1.8943e+07,-13.7258
1.89863e+07,-15.5153
1.90297e+07,-17.4353
1.9073e+07,-16.8938
1.91164e+07,-24.369
1.91597e+07,-32.007
1.92031e+07,-32.3683
1.92464e+07,-31.8688
1.92898e+07,-30.2474
1.93331e+07,-25.0778
1.93765e+07,-26.8972
1.94198e+07,-28.0896
1.94632e+07,-28.2437
1.95065e+07,-25.9906
1.95498e+07,-26.0742
1.95932e+07,-24.3685
1.96365e+07,-26.2946
1.96799e+07,-23.8548
1.97232e+07,-24.8009
1.97666e+07,-28.9314
1.98099e+07,-30.6328
1.98533e+07,-30.4995
1.98966e+07,-30.8435
1.994e+07,-33.4974
1.99833e+07,-33.1448
2.00267e+07,-33.3191
2.007e+07,-27.2339
2.01134e+07,-28.9434
2.01567e+07,-28.6656
2.02001e+07,-29.7157
2.02434e+07,-29.3991
2.02868e+07,-26.6855
2.03301e+07,-25.6897
2.03735e+07,-25.324
2.04168e+07,-27.1356
2.04602e+07,-26.1244
2.05035e+07,-26.6322
2.05468e+07,-29.671
2.05902e+07,-29.3693
2.06335e+07,-31.0701
2.06769e+07,-32.14
2.07202e+07,-33.9416
2.07636e+07,-33.6076
2.08069e+07,-34.3012
2.08503e+07,-32.1749
2.08936e+07,-28.419
2.0937e+07,-30.229
2.09803e+07,-30.1354
2.10237e+07,-29.6993
2.1067e+07,-28.1424
2.11104e+07,-27.8765
2.11537e+07,-27.3818
2.11971e+07,-25.1481
2.12404e+07,-26.4126
2.12838e+07,-26.7065
2.13271e+07,-29.8369
2.13705e+07,-29.1821
2.14138e+07,-30.7467
2.14572e+07,-32.0157
2.15005e+07,-33.6321
2.15438e+07,-34.3698
2.15872e+07,-31.2997
2.16305e+07,-32.9936
2.16739e+07,-31.3987
2.17172e+07,-31.0418
2.17606e+07,-30.0493
2.18039e+07,-29.5962
2.18473e+07,-29.1346
2.18906e+07,-26.6392
2.1934e+07,-26.0445
2.19773e+07,-25.6504
2.20207e+07,-23.4572
2.2064e+07,-26.0023
2.21074e+07,-26.6056
2.21507e+07,-28.7813
2.21941e+07,-30.4756
2.22374e+07,-30.8946
2.22808e+07,-32.3089
2.23241e+07,-32.5927
2.23675e+07,-31.5574
2.24108e+07,-32.2626
2.24542e+07,-31.6554
2.24975e+07,-29.6522
2.25408e+07,-31.2062
2.25842e+07,-30.1315
2.26275e+07,-29.1341
2.26709e+07,-28.1098
2.27142e+07,-25.7917
2.27576e+07,-26.424
2.28009e+07,-23.5925
2.28443e+07,-26.834
2.28876e+07,-26.4889
2.2931e+07,-30.2409
2.29743e+07,-31.104
2.30177e+07,-32.4007
2.3061e+07,-33.0579
2.31044e+07,-32.2133
2.31477e+07,-31.8355
2.31911e+07,-31.4656
2.32344e+07,-32.1292
2.32778e+07,-31.9919
2.33211e+07,-31.5624
2.33645e+07,-30.4812
2.34078e+07,-29.2778
2.34512e+07,-26.2976
2.34945e+07,-24.1086
2.35378e+07,-24.7081
2.35812e+07,-24.3176
2.36245e+07,-23.6674
2.36679e+07,-25.6411
2.37112e+07,-28.762
2.37546e+07,-32.1913
2.37979e+07,-32.6883
2.38413e+07,-32.735
2.38846e+07,-33.434
2.3928e+07,-32.7605
2.39713e+07,-32.8534
2.40147e+07,-31.1928
2.4058e+07,-32.5798
2.41014e+07,-32.9207
2.41447e+07,-31.4482
2.41881e+07,-27.2002
2.42314e+07,-25.8013
2.42748e+07,-24.0704
2.43181e+07,-24.2319
2.43615e+07,-25.8138
2.44048e+07,-26.5864
2.44481e+07,-25.4417
2.44915e+07,-27.1554
2.45348e+07,-29.7364
2.45782e+07,-30.847
2.46215e+07,-32.0981
2.46649e+07,-30.9632
2.47082e+07,-31.6364
2.47516e+07,-33.1776
2.47949e+07,-33.6487
2.48383e+07,-33.6284
2.48816e+07,-31.2715
2.4925e+07,-31.3769
2.49683e+07,-31.3742
2.50117e+07,-29.6052
2.5055e+07,-27.1999
2.50984e+07,-25.9636
2.51417e+07,-26.7955
2.51851e+07,-26.8183
2.52284e+07,-27.4363
2.52718e+07,-28.8138
2.53151e+07,-30.9328
2.53585e+07,-33.382
2.54018e+07,-35.0586
2.54451e+07,-32.0984
2.54885e+07,-34.2884
2.55318e+07,-33.5827
2.55752e+07,-35.6494
2.56185e+07,-33.5708
2.56619e+07,-31.3578
2.57052e+07,-32.6598
2.57486e+07,-32.0176
2.57919e+07,-31.138
2.58353e+07,-29.2783
2.58786e+07,-31.1895
2.5922e+07,-30.2555
2.59653e+07,-30.3826
2.60087e+07,-29.1656
2.6052e+07,-31.0071
2.60954e+07,-33.4764
2.61387e+07,-31.5814
2.61821e+07,-32.0204
2.62254e+07,-32.3472
2.62688e+07,-34.1708
2.63121e+07,-35.1193
2.63555e+07,-34.5448
2.63988e+07,-33.5683
2.64421e+07,-31.8566
2.64855e+07,-32.9676
2.65288e+07,-32.2526
2.65722e+07,-31.5061
2.66155e+07,-30.4397
2.66589e+07,-32.1228
2.67022e+07,-31.0524
2.67456e+07,-30.4672
2.67889e+07,-29.0664
2.68323e+07,-29.987
2.68756e+07,-32.364
2.6919e+07,-31.8046
2.69623e+07,-34.3346
2.70057e+07,-32.587
2.7049e+07,-33.9846
2.70924e+07,-33.6213
2.71357e+07,-34.7175
2.71791e+07,-33.5759
2.72224e+07,-33.0733
2.72658e+07,-30.885
2.73091e+07,-31.4162
2.73525e+07,-31.1042
2.73958e+07,-32.7103
2.74391e+07,-31.7056
2.74825e+07,-31.9997
2.75258e+07,-29.6854
2.75692e+07,-30.0846
2.76125e+07,-32.1113
2.76559e+07,-31.9243
2.76992e+07,-34.4202
2.77426e+07,-33.4252
2.77859e+07,-34.3539
2.78293e+07,-33.5223
2.78726e+07,-34.8225
2.7916e+07,-35.0409
2.79593e+07,-35.5808
2.80027e+07,-33.1674
2.8046e+07,-32.5615
2.80894e+07,-32.7323
2.81327e+07,-32.2605
2.81761e+07,-31.6043
2.82194e+07,-32.4107
2.82628e+07,-30.8904
2.83061e+07,-29.6851
2.83494e+07,-31.1363
2.83928e+07,-29.0972
2.84361e+07,-31.5266
2.84795e+07,-31.2195
2.85228e+07,-33.0582
2.85662e+07,-33.6942
2.86095e+07,-34.3167
2.86529e+07,-35.4762
2.86962e+07,-34.0162
2.87396e+07,-34.0672
2.87829e+07,-34.0547
2.88263e+07,-32.6471
2.88696e+07,-32.0764
2.8913e+07,-31.3425
2.89563e+07,-29.3155
2.89997e+07,-30.7689
2.9043e+07,-25.7184
2.90864e+07,-24.6369
2.91297e+07,-26.4107
2.91731e+07,-28.4318
2.92164e+07,-29.6844
2.92598e+07,-29.3854
2.93031e+07,-32.6336
2.93464e+07,-33.77
2.93898e+07,-34.8235
2.94331e+07,-35.4302
2.94765e+07,-33.3284
2.95198e+07,-33.3234
2.95632e+07,-34.191
2.96065e+07,-33.4309
2.96499e+07,-34.4639
2.96932e+07,-33.0012
2.97366e+07,-30.9869
2.97799e+07,-33.1016
2.98233e+07,-31.5885
2.98666e+07,-33.3565
2.991e+07,-31.2763
2.99533e+07,-32.2276
2.99967e+07,-31.1034
3.004e+07,-30.9452
3.00834e+07,-33.4689
3.01267e+07,-34.3777
3.01701e+07,-34.9532
3.02134e+07,-35.7887
3.02568e+07,-35.9452
3.03001e+07,-35.0829
3.03434e+07,-35.7883
3.03868e+07,-34.5808
3.04301e+07,-34.8667
3.04735e+07,-32.5598
3.05168e+07,-32.9023
3.05602e+07,-32.8098
3.06035e+07,-33.8209
3.06469e+07,-33.315
3.06902e+07,-33.0924
3.07336e+07,-30.1939
3.07769e+07,-31.234
3.08203e+07,-33.266
3.08636e+07,-33.2723
3.0907e+07,-33.1297
3.09503e+07,-35.8275
3.09937e+07,-33.8163
3.1037e+07,-36.1179
3.10804e+07,-34.8996
3.11237e+07,-35.8595
3.11671e+07,-34.5447
3.12104e+07,-34.0119
3.12538e+07,-33.7419
3.12971e+07,-33.0795
3.13404e+07,-33.4633
3.13838e+07,-32.2117
3.14271e+07,-32.5807
3.14705e+07,-33.5825
3.15138e+07,-31.7063
3.15572e+07,-32.8006
3.16005e+07,-31.9715
3.16439e+07,-32.7546
3.16872e+07,-35.1765
3.17306e+07,-35.1243
3.17739e+07,-34.5241
3.18173e+07,-35.5121
3.18606e+07,-35.1559
3.1904e+07,-34.7542
3.19473e+07,-33.6685
3.19907e+07,-31.7048
3.2034e+07,-33.3075
3.20774e+07,-34.5568
3.21207e+07,-32.0579
3.21641e+07,-33.2699
3.22074e+07,-34.3164
3.22508e+07,-32.6469
3.22941e+07,-31.8822
3.23374e+07,-29.8416
3.23808e+07,-29.2498
3.24241e+07,-32.3786
3.24675e+07,-33.5327
3.25108e+07,-33.2623
3.25542e+07,-35.5266
3.25975e+07,-36.4021
3.26409e+07,-36.4321
3.26842e+07,-36.0658
3.27276e+07,-35.5135
3.27709e+07,-34.0299
3.28143e+07,-35.4944
3.28576e+07,-34.6712
3.2901e+07,-35.1127
3.29443e+07,-35.0054
3.29877e+07,-33.5879
3.3031e+07,-33.511
3.30744e+07,-32.6473
3.31177e+07,-34.546
3.31611e+07,-34.559
3.32044e+07,-36.1515
3.32477e+07,-36.4117
3.32911e+07,-35.9335
3.33344e+07,-36.9864
3.33778e+07,-37.7197
3.34211e+07,-38.0716
3.34645e+07,-37.1662
3.35078e+07,-36.0766
3.35512e+07,-34.5747
3.35945e+07,-36.667
3.36379e+07,-33.1387
3.36812e+07,-34.8024
3.37246e+07,-33.4923
3.37679e+07,-34.0727
3.38113e+07,-29.3167
3.38546e+07,-31.9909
3.3898e+07,-31.9228
3.39413e+07,-32.7231
3.39847e+07,-34.0845
3.4028e+07,-34.3454
3.40714e+07,-35.8633
3.41147e+07,-37.197
3.41581e+07,-37.4912
3.42014e+07,-36.4552
3.42447e+07,-38.3979
3.42881e+07,-35.4378
3.43314e+07,-34.3244
3.43748e+07,-36.7993
3.44181e+07,-34.6473
3.44615e+07,-35.2689
3.45048e+07,-36.4124
3.45482e+07,-33.6115
3.45915e+07,-32.0263
3.46349e+07,-33.9138
3.46782e+07,-32.4447
3.47216e+07,-30.4295
3.47649e+07,-32.7998
3.48083e+07,-35.796
3.48516e+07,-37.0214
3.4895e+07,-36.3811
3.49383e+07,-38.2771
3.49817e+07,-36.4202
3.5025e+07,-37.7986
3.50684e+07,-37.1839
3.51117e+07,-35.3671
3.51551e+07,-35.897
3.51984e+07,-36.1183
3.52417e+07,-36.7579
3.52851e+07,-34.4797
3.53284e+07,-34.164
3.53718e+07,-33.8595
3.54151e+07,-33.6847
3.54585e+07,-33.8904
3.55018e+07,-35.7873
3.55452e+07,-36.5189
3.55885e+07,-35.0644
3.56319e+07,-38.09
3.56752e+07,-36.6796
3.57186e+07,-38.1746
3.57619e+07,-37.0011
3.58053e+07,-38.3436
3.58486e+07,-37.1663
3.5892e+07,-36.8092
3.59353e+07,-36.3271
3.59787e+07,-37.2396
3.6022e+07,-37.1203
3.60654e+07,-37.0076
3.61087e+07,-36.1966
3.61521e+07,-35.8503
3.61954e+07,-36.3493
3.62387e+07,-34.619
3.62821e+07,-33.6431
3.63254e+07,-34.2545
3.63688e+07,-36.2914
3.64121e+07,-36.5491
3.64555e+07,-37.7452
3.64988e+07,-36.8951
3.65422e+07,-37.031
3.65855e+07,-38.8546
3.66289e+07,-38.2431
3.66722e+07,-37.5519
3.67156e+07,-36.1181
3.67589e+07,-36.8089
3.68023e+07,-36.1967
3.68456e+07,-35.2068
3.6889e+07,-37.27
3.69323e+07,-36.3979
3.69757e+07,-36.8423
3.7019e+07,-34.7785
3.70624e+07,-37.002
3.71057e+07,-37.5744
3.7149e+07,-38.3918
3.71924e+07,-38.1303
3.72357e+07,-35.8774
3.72791e+07,-36.2748
3.73224e+07,-37.6591
3.73658e+07,-37.159
3.74091e+07,-36.7826
3.74525e+07,-37.3661
3.74958e+07,-38.0029
3.75392e+07,-37.7744
3.75825e+07,-37.8096
3.76259e+07,-35.6926
3.76692e+07,-35.5085
3.77126e+07,-37.2546
3.77559e+07,-34.9786
3.77993e+07,-34.0089
3.78426e+07,-33.278
3.7886e+07,-33.7246
3.79293e+07,-35.0234
3.79727e+07,-33.6852
3.8016e+07,-37.5239
3.80594e+07,-36.0624
3.81027e+07,-37.4083
3.8146e+07,-38.1869
3.81894e+07,-38.5682
3.82327e+07,-38.1468
3.82761e+07,-37.4338
3.83194e+07,-36.2761
3.83628e+07,-35.9661
3.84061e+07,-37.7663
3.84495e+07,-36.6566
3.84928e+07,-36.678
3.85362e+07,-35.5899
3.85795e+07,-36.7258
3.86229e+07,-37.3392
3.86662e+07,-35.8186
3.87096e+07,-34.4134
3.87529e+07,-37.3053
3.87963e+07,-35.8726
3.88396e+07,-37.474
3.8883e+07,-38.5274
3.89263e+07,-38.6647
3.89697e+07,-36.9961
3.9013e+07,-38.6765
3.90564e+07,-37.1462
3.90997e+07,-36.0614
3.9143e+07,-35.8062
3.91864e+07,-37.9949
3.92297e+07,-37.0151
3.92731e+07,-36.526
3.93164e+07,-36.835
3.93598e+07,-34.3415
3.94031e+07,-35.886
3.94465e+07,-35.5533
3.94898e+07,-36.9079
3.95332e+07,-37.1094
3.95765e+07,-36.8782
3.96199e+07,-36.9124
3.96632e+07,-38.2451
3.97066e+07,-36.1537
3.97499e+07,-38.2419
3.97933e+07,-36.1422
3.98366e+07,-38.2445
3.988e+07,-36.3956
3.99233e+07,-36.8869
3.99667e+07,-36.2345
4.001e+07,-37.418
4.00534e+07,-36.3719
4.00967e+07,-37.4177
4.014e+07,-36.0537
4.01834e+07,-37.4279
4.02267e+07,-36.9525
4.02701e+07,-36.6534
4.03134e+07,-38.5319
4.03568e+07,-37.8584
4.04001e+07,-38.0948
4.04435e+07,-38.66
4.04868e+07,-38.6568
4.05302e+07,-37.3851
4.05735e+07,-39.2416
4.06169e+07,-37.1818
4.06602e+07,-38.2535
4.07036e+07,-38.5099
4.07469e+07,-37.4339
4.07903e+07,-37.0402
4.08336e+07,-37.2551
4.0877e+07,-38.1414
4.09203e+07,-36.7065
4.09637e+07,-36.107
4.1007e+07,-37.4593
4.10504e+07,-36.2038
4.10937e+07,-35.7397
4.1137e+07,-37.4354
4.11804e+07,-38.0502
4.12237e+07,-38.2747
4.12671e+07,-38.315
4.13104e+07,-37.8144
4.13538e+07,-38.1541
4.13971e+07,-38.1796
4.14405e+07,-38.8087
4.14838e+07,-37.8111
4.15272e+07,-38.5966
4.15705e+07,-36.6876
4.16139e+07,-36.4577
4.16572e+07,-37.0275
4.17006e+07,-37.0149
4.17439e+07,-37.0497
4.17873e+07,-36.5512
4.18306e+07,-37.9006
4.1874e+07,-38.7402
4.19173e+07,-37.4016
4.19607e+07,-37.9473
4.2004e+07,-38.0336
4.20473e+07,-36.7705
4.20907e+07,-38.3153
4.2134e+07,-37.5137
4.21774e+07,-36.6546
4.22207e+07,-39.1023
4.22641e+07,-37.3771
4.23074e+07,-38.4459
4.23508e+07,-38.1227
4.23941e+07,-38.5581
4.24375e+07,-37.1533
4.24808e+07,-37.7129
4.25242e+07,-36.1269
4.25675e+07,-35.4869
4.26109e+07,-38.1844
4.26542e+07,-37.2828
4.26976e+07,-36.2419
4.27409e+07,-38.0791
4.27843e+07,-38.3218
4.28276e+07,-36.5953
4.2871e+07,-38.5715
4.29143e+07,-38.3505
4.29577e+07,-38.6281
4.3001e+07,-37.1364
4.30443e+07,-36.7287
4.30877e+07,-37.3849
4.3131e+07,-37.8114
4.31744e+07,-38.5081
4.32177e+07,-37.0727
4.32611e+07,-37.0051
4.33044e+07,-35.6941
4.33478e+07,-37.7454
4.33911e+07,-35.2005
4.34345e+07,-38.5638
4.34778e+07,-37.6211
4.35212e+07,-38.2416
4.35645e+07,-38.3514
4.36079e+07,-38.0679
4.36512e+07,-37.9893
4.36946e+07,-38.1072
4.37379e+07,-37.0185
4.37813e+07,-37.4219
4.38246e+07,-37.6925
4.3868e+07,-37.5799
4.39113e+07,-38.2923
4.39547e+07,-37.7734
4.3998e+07,-37.2376
4.40413e+07,-38.9489
4.40847e+07,-37.3299
4.4128e+07,-37.3014
4.41714e+07,-36.8467
4.42147e+07,-37.242
4.42581e+07,-35.1877
4.43014e+07,-37.2622
4.43448e+07,-37.4489
4.43881e+07,-38.3838
4.44315e+07,-38.5726
4.44748e+07,-39.4215
4.45182e+07,-37.7744
4.45615e+07,-37.3569
4.46049e+07,-39.2258
4.46482e+07,-37.3774
4.46916e+07,-38.1665
4.47349e+07,-36.9706
4.47783e+07,-38.4677
4.48216e+07,-38.0192
4.4865e+07,-37.7407
4.49083e+07,-37.5368
4.49517e+07,-37.1912
4.4995e+07,-35.8183
4.50383e+07,-36.262
4.50817e+07,-37.9765
4.5125e+07,-38.251
4.51684e+07,-38.1964
4.52117e+07,-38.5881
4.52551e+07,-37.5702
4.52984e+07,-39.2012
4.53418e+07,-37.031
4.53851e+07,-37.6554
4.54285e+07,-37.4744
4.54718e+07,-38.5903
4.55152e+07,-36.9483
4.55585e+07,-35.3469
4.56019e+07,-37.5718
4.56452e+07,-35.2911
4.56886e+07,-35.6461
4.57319e+07,-36.5129
4.57753e+07,-36.2369
4.58186e+07,-36.4915
4.5862e+07,-37.3373
4.59053e+07,-35.464
4.59486e+07,-37.4413
4.5992e+07,-36.669
4.60353e+07,-36.0621
4.60787e+07,-37.9622
4.6122e+07,-36.7143
4.61654e+07,-37.7828
4.62087e+07,-37.9981
4.62521e+07,-38.0879
4.62954e+07,-35.4669
4.63388e+07,-36.8546
4.63821e+07,-37.2071
4.64255e+07,-37.7331
4.64688e+07,-38.5931
4.65122e+07,-36.6171
4.65555e+07,-36.3262
4.65989e+07,-37.8637
4.66422e+07,-38.3417
4.66856e+07,-37.5312
4.67289e+07,-37.3683
4.67723e+07,-35.7586
4.68156e+07,-38.2861
4.6859e+07,-37.7453
4.69023e+07,-38.414
4.69456e+07,-38.4816
4.6989e+07,-37.3753
4.70323e+07,-37.1238
4.70757e+07,-38.0038
4.7119e+07,-38.2621
4.71624e+07,-38.475
4.72057e+07,-37.6202
4.72491e+07,-37.7658
4.72924e+07,-37.0851
4.73358e+07,-36.4469
4.73791e+07,-38.0956
4.74225e+07,-36.6406
4.74658e+07,-37.5208
4.75092e+07,-37.7324
4.75525e+07,-36.4978
4.75959e+07,-36.3045
4.76392e+07,-37.2595
4.76826e+07,-38.6555
4.77259e+07,-38.0466
4.77693e+07,-37.7806
4.78126e+07,-37.4486
4.7856e+07,-38.6399
4.78993e+07,-37.6744
4.79426e+07,-37.6716
4.7986e+07,-38.268
4.80293e+07,-37.9089
4.80727e+07,-36.6266
4.8116e+07,-34.3804
4.81594e+07,-37.9196
4.82027e+07,-36.3118
4.82461e+07,-37.4262
4.82894e+07,-37.8502
4.83328e+07,-35.5004
4.83761e+07,-37.8087
4.84195e+07,-37.6325
4.84628e+07,-36.7699
4.85062e+07,-38.166
4.85495e+07,-38.092
4.85929e+07,-37.64
4.86362e+07,-38.1713
4.86796e+07,-38.5058
4.87229e+07,-38.3265
4.87663e+07,-37.2457
4.88096e+07,-37.3566
4.8853e+07,-37.3409
4.88963e+07,-37.4426
4.89396e+07,-37.8812
4.8983e+07,-38.2591
4.90263e+07,-36.9821
4.90697e+07,-38.1357
4.9113e+07,-36.7339
4.91564e+07,-37.566
4.91997e+07,-38.9141
4.92431e+07,-37.7923
4.92864e+07,-38.7628
4.93298e+07,-37.7784
4.93731e+07,-37.051
4.94165e+07,-38.7532
4.94598e+07,-38.539
4.95032e+07,-38.2345
4.95465e+07,-38.3298
4.95899e+07,-37.6261
4.96332e+07,-37.4982
4.96766e+07,-37.2763
4.97199e+07,-37.4558
4.97633e+07,-36.9574
4.98066e+07,-36.8831
4.98499e+07,-37.1454
4.98933e+07,-37.1326
4.99366e+07,-36.3526
4.998e+07,-38.3023
5.00233e+07,-37.5262
5.00667e+07,-37.7845
5.011e+07,-37.4785
5.01534e+07,-39.0589
5.01967e+07,-37.6757
5.02401e+07,-38.0364
5.02834e+07,-37.7487
5.03268e+07,-38.6357
5.03701e+07,-37.5496
5.04135e+07,-36.6176
5.04568e+07,-37.124
5.05002e+07,-36.663
5.05435e+07,-36.4401
5.05869e+07,-35.3962
5.06302e+07,-34.8299
5.06736e+07,-37.3936
5.07169e+07,-38.1917
5.07603e+07,-36.5694
5.08036e+07,-36.8838
5.08469e+07,-37.274
5.08903e+07,-38.2951
5.09336e+07,-37.336
5.0977e+07,-38.4972
5.10203e+07,-39.3046
5.10637e+07,-37.4717
5.1107e+07,-37.9846
5.11504e+07,-36.945
5.11937e+07,-36.5735
5.12371e+07,-34.5065
5.12804e+07,-35.7921
5.13238e+07,-36.6497
5.13671e+07,-35.1778
5.14105e+07,-34.3117
5.14538e+07,-36.2489
5.14972e+07,-35.943
5.15405e+07,-37.1833
5.15839e+07,-37.4027
5.16272e+07,-35.9693
5.16706e+07,-37.9753
5.17139e+07,-36.4383
5.17573e+07,-37.7955
5.18006e+07,-37.7927
5.18439e+07,-37.3501
5.18873e+07,-36.7017
5.19306e+07,-36.7282
5.1974e+07,-37.6085
5.20173e+07,-34.9471
5.20607e+07,-37.9747
5.2104e+07,-36.5864
5.21474e+07,-36.0375
5.21907e+07,-36.6556
5.22341e+07,-36.2546
5.22774e+07,-36.884
5.23208e+07,-36.2935
5.23641e+07,-37.0958
5.24075e+07,-35.6589
5.24508e+07,-35.7513
5.24942e+07,-36.2062
5.25375e+07,-36.7564
5.25809e+07,-38.0131
5.26242e+07,-38.1545
5.26676e+07,-38.2174
5.27109e+07,-38.4502
5.27543e+07,-37.2634
5.27976e+07,-38.0634
5.28409e+07,-35.5625
5.28843e+07,-36.0431
5.29276e+07,-35.4196
5.2971e+07,-36.8313
5.30143e+07,-34.7584
5.30577e+07,-36.647
5.3101e+07,-35.6364
5.31444e+07,-36.9792
5.31877e+07,-35.8765
5.32311e+07,-37.7878
5.32744e+07,-37.4132
5.33178e+07,-38.4699
5.33611e+07,-38.0739
5.34045e+07,-38.5143
5.34478e+07,-36.9365
5.34912e+07,-37.1752
5.35345e+07,-38.3404
5.35779e+07,-37.2262
5.36212e+07,-36.7305
5.36646e+07,-34.9426
5.37079e+07,-35.5887
5.37513e+07,-34.9504
5.37946e+07,-36.6435
5.38379e+07,-37.5655
5.38813e+07,-37.0306
5.39246e+07,-36.5101
5.3968e+07,-36.1971
5.40113e+07,-36.261
5.40547e+07,-37.0328
5.4098e+07,-36.5643
5.41414e+07,-36.832
5.41847e+07,-37.913
5.42281e+07,-37.5516
5.42714e+07,-38.7694
5.43148e+07,-37.6049
5.43581e+07,-36.2216
5.44015e+07,-37.3332
5.44448e+07,-35.6046
5.44882e+07,-34.3769
5.45315e+07,-32.8252
5.45749e+07,-35.4505
5.46182e+07,-35.5979
5.46616e+07,-35.0223
5.47049e+07,-36.3037
5.47482e+07,-35.1161
5.47916e+07,-36.4056
5.48349e+07,-36.2414
5.48783e+07,-36.9343
5.49216e+07,-37.5346
5.4965e+07,-34.6997
5.50083e+07,-36.5108
5.50517e+07,-36.3216
5.5095e+07,-35.8254
5.51384e+07,-37.2649
5.51817e+07,-36.6414
5.52251e+07,-34.3426
5.52684e+07,-34.1857
5.53118e+07,-34.7549
5.53551e+07,-35.6565
5.53985e+07,-35.6138
5.54418e+07,-36.0616
5.54852e+07,-35.8314
5.55285e+07,-36.8962
5.55719e+07,-35.2772
5.56152e+07,-36.6168
5.56586e+07,-36.3207
5.57019e+07,-37.7676
5.57452e+07,-36.7418
5.57886e+07,-36.9652
5.58319e+07,-36.9726
5.58753e+07,-36.6547
5.59186e+07,-36.9874
5.5962e+07,-34.4079
5.60053e+07,-34.8997
5.60487e+07,-34.279
5.6092e+07,-32.6228
5.61354e+07,-33.0735
5.61787e+07,-33.5774
5.62221e+07,-34.6614
5.62654e+07,-35.4041
5.63088e+07,-34.7476
5.63521e+07,-34.5211
5.63955e+07,-33.53
5.64388e+07,-35.0435
5.64822e+07,-37.2577
5.65255e+07,-36.2802
5.65689e+07,-36.3239
5.66122e+07,-36.9045
5.66556e+07,-35.924
5.66989e+07,-35.3331
5.67422e+07,-36.546
5.67856e+07,-33.8277
5.68289e+07,-31.4252
5.68723e+07,-33.7895
5.69156e+07,-32.7554
5.6959e+07,-34.2375
5.70023e+07,-32.9867
5.70457e+07,-34.5388
5.7089e+07,-35.2176
5.71324e+07,-33.64
5.71757e+07,-34.4021
5.72191e+07,-35.1888
5.72624e+07,-37.1665
5.73058e+07,-36.4246
5.73491e+07,-37.2584
5.73925e+07,-34.8423
5.74358e+07,-36.0557
5.74792e+07,-34.4384
5.75225e+07,-33.5275
5.75659e+07,-32.107
5.76092e+07,-33.7772
5.76526e+07,-30.8505
5.76959e+07,-32.2863
5.77392e+07,-30.6243
5.77826e+07,-32.6056
5.78259e+07,-29.6804
5.78693e+07,-31.5603
5.79126e+07,-32.413
5.7956e+07,-31.4195
5.79993e+07,-32.0434
5.80427e+07,-33.634
5.8086e+07,-34.4218
5.81294e+07,-34.6704
5.81727e+07,-35.8235
5.82161e+07,-35.4852
5.82594e+07,-34.6662
5.83028e+07,-33.9776
5.83461e+07,-34.791
5.83895e+07,-32.7621
5.84328e+07,-31.8287
5.84762e+07,-31.5013
5.85195e+07,-34.1265
5.85629e+07,-32.4496
5.86062e+07,-33.7331
5.86495e+07,-33.7381
5.86929e+07,-33.9097
5.87362e+07,-34.1259
5.87796e+07,-33.7326
5.88229e+07,-34.3236
5.88663e+07,-35.765
5.89096e+07,-34.7681
5.8953e+07,-36.9778
5.89963e+07,-36.1732
5.90397e+07,-34.2864
5.9083e+07,-34.5123
5.91264e+07,-34.4897
5.91697e+07,-33.6088
5.92131e+07,-33.1682
5.92564e+07,-31.3387
5.92998e+07,-30.4019
5.93431e+07,-30.8237
5.93865e+07,-30.0756
5.94298e+07,-30.7659
5.94732e+07,-32.6341
5.95165e+07,-34.4363
5.95599e+07,-34.0556
5.96032e+07,-35.4519
5.96465e+07,-35.6958
5.96899e+07,-36.144
5.97332e+07,-33.4396
5.97766e+07,-36.4905
5.98199e+07,-34.7598
5.98633e+07,-32.9833
5.99066e+07,-33.6781
5.995e+07,-32.7654
5.99933e+07,-32.5648
6.00367e+07,-33.0223
6.008e+07,-31.1788
6.01234e+07,-32.4275
6.01667e+07,-32.6276
6.02101e+07,-31.4488
6.02534e+07,-32.9367
6.02968e+07,-32.1937
6.03401e+07,-32.9239
6.03835e+07,-33.0087
6.04268e+07,-35.6101
6.04702e+07,-33.8158
6.05135e+07,-34.3908
6.05569e+07,-34.9848
6.06002e+07,-35.226
6.06435e+07,-34.1728
6.06869e+07,-33.6793
6.07302e+07,-32.3288
6.07736e+07,-33.0297
6.08169e+07,-32.0765
6.08603e+07,-29.4111
6.09036e+07,-30.5342
6.0947e+07,-30.2615
6.09903e+07,-29.8388
6.10337e+07,-30.7907
6.1077e+07,-29.8924
6.11204e+07,-32.8936
6.11637e+07,-33.7879
6.12071e+07,-33.3446
6.12504e+07,-33.9763
6.12938e+07,-34.892
6.13371e+07,-35.2936
6.13805e+07,-34.9785
6.14238e+07,-34.709
6.14672e+07,-31.9493
6.15105e+07,-32.209
6.15539e+07,-32.2465
6.15972e+07,-30.6905
6.16405e+07,-29.6632
6.16839e+07,-29.6223
6.17272e+07,-30.3636
6.17706e+07,-27.602
6.18139e+07,-30.7885
6.18573e+07,-28.7936
6.19006e+07,-33.1622
6.1944e+07,-34.7615
6.19873e+07,-33.9372
6.20307e+07,-34.3699
6.2074e+07,-36.0403
6.21174e+07,-33.4262
6.21607e+07,-37.1146
6.22041e+07,-31.9305
6.22474e+07,-33.4791
6.22908e+07,-32.1151
6.23341e+07,-31.9749
6.23775e+07,-29.9865
6.24208e+07,-29.517
6.24642e+07,-28.2333
6.25075e+07,-27.0161
6.25509e+07,-27.2752
6.25942e+07,-28.6659
6.26375e+07,-29.4395
6.26809e+07,-31.8776
6.27242e+07,-33.7232
6.27676e+07,-33.2764
6.28109e+07,-33.4077
6.28543e+07,-35.689
6.28976e+07,-35.1262
6.2941e+07,-33.2841
6.29843e+07,-35.8078
6.30277e+07,-31.7745
6.3071e+07,-31.4618
6.31144e+07,-31.0887
6.31577e+07,-29.0536
6.32011e+07,-27.5557
6.32444e+07,-27.5278
6.32878e+07,-28.7808
6.33311e+07,-27.7009
6.33745e+07,-29.1164
6.34178e+07,-26.1564
6.34612e+07,-30.6129
6.35045e+07,-31.6872
6.35478e+07,-33.1047
6.35912e+07,-32.2306
6.36345e+07,-33.2139
6.36779e+07,-33.8869
6.37212e+07,-34.3393
6.37646e+07,-33.4034
6.38079e+07,-33.4614
6.38513e+07,-29.4866
6.38946e+07,-31.1962
6.3938e+07,-30.5613
6.39813e+07,-28.5467
6.40247e+07,-29.1795
6.4068e+07,-27.5238
6.41114e+07,-27.6747
6.41547e+07,-29.528
6.41981e+07,-29.4173
6.42414e+07,-29.0035
6.42848e+07,-28.9616
6.43281e+07,-32.824
6.43715e+07,-32.0566
6.44148e+07,-33.6126
6.44582e+07,-34.0543
6.45015e+07,-32.4269
6.45448e+07,-32.644
6.45882e+07,-32.3516
6.46315e+07,-30.612
6.46749e+07,-29.8229
6.47182e+07,-27.8354
6.47616e+07,-26.9726
6.48049e+07,-28.0149
6.48483e+07,-27.1004
6.48916e+07,-26.9509
6.4935e+07,-28.435
6.49783e+07,-26.2925
6.50217e+07,-28.1987
6.5065e+07,-28.4038
6.51084e+07,-29.3981
6.51517e+07,-32.6181
6.51951e+07,-31.9752
6.52384e+07,-33.1867
6.52818e+07,-31.6659
6.53251e+07,-33.0933
6.53685e+07,-31.7885
6.54118e+07,-31.5953
6.54552e+07,-29.8481
6.54985e+07,-29.1682
6.55418e+07,-29.6974
6.55852e+07,-29.7461
6.56285e+07,-27.087
6.56719e+07,-27.8983
6.57152e+07,-27.5697
6.57586e+07,-27.5417
6.58019e+07,-28.0112
6.58453e+07,-27.5263
6.58886e+07,-32.3758
6.5932e+07,-32.8878
6.59753e+07,-31.2755
6.60187e+07,-32.9723
6.6062e+07,-33.1666
6.61054e+07,-32.6457
6.61487e+07,-32.2089
6.61921e+07,-31.4663
6.62354e+07,-28.1944
6.62788e+07,-28.9719
6.63221e+07,-23.6855
6.63655e+07,-27.5148
6.64088e+07,-25.4889
6.64522e+07,-26.0756
6.64955e+07,-26.8345
6.65388e+07,-27.4573
6.65822e+07,-27.3997
6.66255e+07,-27.8169
6.66689e+07,-30.5381
6.67122e+07,-30.1138
6.67556e+07,-32.8559
6.67989e+07,-33.0017
6.68423e+07,-32.2504
6.68856e+07,-31.0465
6.6929e+07,-32.1808
6.69723e+07,-28.1942
6.70157e+07,-28.9748
6.7059e+07,-27.9562
6.71024e+07,-26.4442
6.71457e+07,-27.9003
6.71891e+07,-27.7218
6.72324e+07,-26.5103
6.72758e+07,-25.8129
6.73191e+07,-25.4385
6.73625e+07,-24.0123
6.74058e+07,-27.9862
6.74491e+07,-26.3619
6.74925e+07,-31.3402
6.75358e+07,-28.8302
6.75792e+07,-31.218
6.76225e+07,-31.5877
6.76659e+07,-33.2773
6.77092e+07,-32.3604
6.77526e+07,-29.1233
6.77959e+07,-29.1171
6.78393e+07,-27.5485
6.78826e+07,-27.5543
6.7926e+07,-26.4941
6.79693e+07,-25.8511
6.80127e+07,-25.6668
6.8056e+07,-24.1076
6.80994e+07,-24.0683
6.81427e+07,-24.3693
6.81861e+07,-23.978
6.82294e+07,-25.8671
6.82728e+07,-28.9335
6.83161e+07,-29.3557
6.83595e+07,-28.0307
6.84028e+07,-29.9416
6.84461e+07,-32.1191
6.84895e+07,-30.6481
6.85328e+07,-33.3982
6.85762e+07,-30.565
6.86195e+07,-27.7627
6.86629e+07,-27.4647
6.87062e+07,-26.7017
6.87496e+07,-27.498
6.87929e+07,-25.8731
6.88363e+07,-24.4758
6.88796e+07,-26.4855
6.8923e+07,-26.0381
6.89663e+07,-24.6631
6.90097e+07,-24.9294
6.9053e+07,-27.9196
6.90964e+07,-28.3516
6.91397e+07,-28.1908
6.91831e+07,-30.1136
6.92264e+07,-32.4107
6.92698e+07,-29.8187
6.93131e+07,-26.8102
6.93565e+07,-24.2408
6.93998e+07,-23.7191
6.94431e+07,-23.2754
6.94865e+07,-20.5741
6.95298e+07,-20.5611
6.95732e+07,-17.7422
6.96165e+07,-18.2571
6.96599e+07,-19.6579
6.97032e+07,-26.4719
6.97466e+07,-26.0379
6.97899e+07,-27.7854
6.98333e+07,-26.8391
6.98766e+07,-26.9819
6.992e+07,-29.6851
6.99633e+07,-30.9724
7.00067e+07,-31.3882
7.005e+07,-31.4766
7.00934e+07,-32.4527
7.01367e+07,-30.8487
7.01801e+07,-28.7662
7.02234e+07,-27.6284
7.02668e+07,-26.1529
7.03101e+07,-25.1505
7.03535e+07,-24.7591
7.03968e+07,-25.7297
7.04401e+07,-25.5464
7.04835e+07,-23.7253
7.05268e+07,-25.5301
7.05702e+07,-25.8793
7.06135e+07,-25.6894
7.06569e+07,-24.4493
7.07002e+07,-24.3462
7.07436e+07,-24.1839
7.07869e+07,-24.7005
7.08303e+07,-26.2534
7.08736e+07,-29.2667
7.0917e+07,-31.138
7.09603e+07,-28.0771
7.10037e+07,-20.5592
7.1047e+07,-19.4459
7.10904e+07,-17.9621
7.11337e+07,-18.3476
7.11771e+07,-18.7341
7.12204e+07,-18.5029
7.12638e+07,-26.205
7.13071e+07,-26.2959
7.13505e+07,-27.2471
7.13938e+07,-28.0222
7.14371e+07,-28.3617
7.14805e+07,-27.1614
7.15238e+07,-30.3336
7.15672e+07,-30.0853
7.16105e+07,-32.1403
7.16539e+07,-30.3706
7.16972e+07,-31.3637
7.17406e+07,-21.8282
7.17839e+07,-18.0588
7.18273e+07,-17.631
7.18706e+07,-15.1981
7.1914e+07,-16.0751
7.19573e+07,-16.4112
7.20007e+07,-17.7517
7.2044e+07,-22.0778
7.20874e+07,-25.2099
7.21307e+07,-25.4508
7.21741e+07,-27.3731
7.22174e+07,-27.4555
7.22608e+07,-27.7671
7.23041e+07,-26.7176
7.23474e+07,-28.7068
7.23908e+07,-30.0649
7.24341e+07,-28.0237
7.24775e+07,-25.7561
7.25208e+07,-24.9389
7.25642e+07,-15.2765
7.26075e+07,-15.6845
7.26509e+07,-15.2862
7.26942e+07,-15.3633
7.27376e+07,-14.145
7.27809e+07,-15.0433
7.28243e+07,-17.0728
7.28676e+07,-18.0925
7.2911e+07,-20.6524
7.29543e+07,-21.8678
7.29977e+07,-22.4446
7.3041e+07,-26.0215
7.30844e+07,-24.3144
7.31277e+07,-27.8958
7.31711e+07,-30.7896
7.32144e+07,-30.0412
7.32578e+07,-28.8229
7.33011e+07,-28.2018
7.33444e+07,-20.9124
7.33878e+07,-16.0327
7.34311e+07,-14.9889
7.34745e+07,-13.3267
7.35178e+07,-14.5102
7.35612e+07,-15.2718
7.36045e+07,-15.1253
7.36479e+07,-17.2068
7.36912e+07,-20.3802
7.37346e+07,-19.3102
7.37779e+07,-20.8919
7.38213e+07,-21.106
7.38646e+07,-23.7065
7.3908e+07,-26.1975
7.39513e+07,-26.1109
7.39947e+07,-26.2839
7.4038e+07,-24.0166
7.40814e+07,-23.4783
7.41247e+07,-22.1894
7.41681e+07,-21.212
7.42114e+07,-22.7688
7.42548e+07,-22.8093
7.42981e+07,-22.346
7.43414e+07,-22.1874
7.43848e+07,-20.3653
7.44281e+07,-23.8679
7.44715e+07,-23.8578
7.45148e+07,-23.8943
7.45582e+07,-24.1611
7.46015e+07,-26.1048
7.46449e+07,-28.402
7.46882e+07,-26.7147
7.47316e+07,-29.5268
7.47749e+07,-30.0199
7.48183e+07,-23.5974
7.48616e+07,-23.4979
7.4905e+07,-22.8143
7.49483e+07,-22.2761
7.49917e+07,-22.6628
7.5035e+07,-17.2504
7.50784e+07,-17.2273
7.51217e+07,-15.8485
7.51651e+07,-17.3196
7.52084e+07,-17.4867
7.52518e+07,-24.1471
7.52951e+07,-18.3935
7.53384e+07,-22.5116
7.53818e+07,-26.1804
7.54251e+07,-27.1196
7.54685e+07,-28.4418
7.55118e+07,-30.3247
7.55552e+07,-30.9016
7.55985e+07,-26.5062
7.56419e+07,-22.9204
7.56852e+07,-21.513
7.57286e+07,-22.2532
7.57719e+07,-22.0767
7.58153e+07,-22.4956
7.58586e+07,-20.9266
7.5902e+07,-19.0105
7.59453e+07,-20.1882
7.59887e+07,-20.3615
7.6032e+07,-25.2545
7.60754e+07,-25.861
7.61187e+07,-25.3787
7.61621e+07,-27.7996
7.62054e+07,-26.5045
7.62487e+07,-29.2628
7.62921e+07,-30.486
7.63354e+07,-30.0211
7.63788e+07,-26.5191
7.64221e+07,-22.3759
7.64655e+07,-18.6648
7.65088e+07,-19.106
7.65522e+07,-19.7461
7.65955e+07,-19.639
7.66389e+07,-21.0486
7.66822e+07,-22.0193
7.67256e+07,-21.8937
7.67689e+07,-21.9007
7.68123e+07,-22.9905
7.68556e+07,-23.829
7.6899e+07,-27.5053
7.69423e+07,-27.8666
7.69857e+07,-27.3182
7.7029e+07,-28.6955
7.70724e+07,-28.4881
7.71157e+07,-27.5393
7.71591e+07,-24.7014
7.72024e+07,-22.2086
7.72457e+07,-18.5179
7.72891e+07,-16.6138
7.73324e+07,-17.0751
7.73758e+07,-18.4933
7.74191e+07,-19.2995
7.74625e+07,-21.38
7.75058e+07,-20.2527
7.75492e+07,-20.8475
7.75925e+07,-21.0039
7.76359e+07,-23.7215
7.76792e+07,-24.2
7.77226e+07,-22.8487
7.77659e+07,-22.9254
7.78093e+07,-26.7933
7.78526e+07,-26.408
7.7896e+07,-22.6445
7.79393e+07,-22.9378
7.79827e+07,-24.9273
7.8026e+07,-20.4574
7.80694e+07,-18.1083
7.81127e+07,-15.9567
7.81561e+07,-16.2271
7.81994e+07,-18.0096
7.82427e+07,-19.9706
7.82861e+07,-7.62229
7.83294e+07,-7.20721
7.83728e+07,-20.4816
7.84161e+07,-22.2194
7.84595e+07,-19.0497
7.85028e+07,-17.1487
7.85462e+07,-19.2167
7.85895e+07,-19.1939
7.86329e+07,-20.9366
7.86762e+07,-27.6156
7.87196e+07,-27.1962
7.87629e+07,-25.8506
7.88063e+07,-21.6302
7.88496e+07,-18.6055
7.8893e+07,-18.0516
7.89363e+07,-17.1202
7.89797e+07,-18.5151
7.9023e+07,-20.5053
7.90664e+07,-14.5485
7.91097e+07,-13.9909
7.91531e+07,-14.617
7.91964e+07,-16.0066
7.92397e+07,-22.5763
7.92831e+07,-20.736
7.93264e+07,-21.557
7.93698e+07,-24.0337
7.94131e+07,-24.3803
7.94565e+07,-25.4681
7.94998e+07,-24.51
7.95432e+07,-24.2474
7.95865e+07,-25.9683
7.96299e+07,-21.1166
7.96732e+07,-17.2285
7.97166e+07,-17.407
7.97599e+07,-17.696
7.98033e+07,-20.3167
7.98466e+07,-13.7691
7.989e+07,-13.3828
7.99333e+07,-13.969
7.99767e+07,-15.6706
8.002e+07,-21.6797
8.00634e+07,-25.2379
8.01067e+07,-23.9114
8.01501e+07,-24.9055
8.01934e+07,-24.9688
8.02367e+07,-26.7539
8.02801e+07,-29.0758
8.03234e+07,-28.0894
8.03668e+07,-28.2047
8.04101e+07,-23.7546
8.04535e+07,-18.1915
8.04968e+07,-18.2345
8.05402e+07,-17.8901
8.05835e+07,-20.7458
8.06269e+07,-17.849
8.06702e+07,-17.2903
8.07136e+07,-18.0723
8.07569e+07,-20.0225
8.08003e+07,-21.3819
8.08436e+07,-26.0922
8.0887e+07,-23.3801
8.09303e+07,-23.9814
8.09737e+07,-24.7605
8.1017e+07,-27.3424
8.10604e+07,-30.5262
8.11037e+07,-28.167
8.1147e+07,-28.505
8.11904e+07,-25.8892
8.12337e+07,-21.4893
8.12771e+07,-16.8018
8.13204e+07,-15.3205
8.13638e+07,-18.1325
8.14071e+07,-20.8202
8.14505e+07,-17.7968
8.14938e+07,-18.2152
8.15372e+07,-17.3001
8.15805e+07,-18.4877
8.16239e+07,-19.0964
8.16672e+07,-26.1569
8.17106e+07,-26.6062
8.17539e+07,-27.2489
8.17973e+07,-25.8379
8.18406e+07,-24.8652
8.1884e+07,-24.0896
8.19273e+07,-23.2221
8.19707e+07,-25.5045
8.2014e+07,-24.5382
8.20574e+07,-20.2497
8.21007e+07,-18.5806
8.2144e+07,-16.2133
8.21874e+07,-16.1582
8.22307e+07,-14.3967
8.22741e+07,-14.4069
8.23174e+07,-12.8502
8.23608e+07,-13.9083
8.24041e+07,-14.1395
8.24475e+07,-18.2657
8.24908e+07,-15.3278
8.25342e+07,-21.4309
8.25775e+07,-27.7026
8.26209e+07,-29.1057
8.26642e+07,-29.4462
8.27076e+07,-25.8632
8.27509e+07,-24.8296
8.27943e+07,-26.7668
8.28376e+07,-12.7371
8.2881e+07,-12.7387
8.29243e+07,-11.3648
8.29677e+07,-13.3709
8.3011e+07,-11.3975
8.30544e+07,-9.39918
8.30977e+07,-9.36246
8.3141e+07,-8.69268
8.31844e+07,-9.06621
8.32277e+07,-9.99255
8.32711e+07,-11.2345
8.33144e+07,-23.4264
8.33578e+07,-24.0292
8.34011e+07,-27.7583
8.34445e+07,-29.0235
8.34878e+07,-27.5978
8.35312e+07,-26.2908
8.35745e+07,-22.9404
8.36179e+07,-17.0711
8.36612e+07,-12.9386
8.37046e+07,-12.8548
8.37479e+07,-11.6801
8.37913e+07,-8.06858
8.38346e+07,-6.35427
8.3878e+07,-5.92095
8.39213e+07,-5.71121
8.39647e+07,-5.40413
8.4008e+07,-7.86423
8.40514e+07,-8.39491
8.40947e+07,-9.10945
8.4138e+07,-21.3255
8.41814e+07,-22.0638
8.42247e+07,-22.7289
8.42681e+07,-27.7995
8.43114e+07,-27.5801
8.43548e+07,-25.928
8.43981e+07,-18.2987
8.44415e+07,-16.4318
8.44848e+07,-13.246
8.45282e+07,-14.0252
8.45715e+07,-15.351
8.46149e+07,-14.6007
8.46582e+07,-13.1055
8.47016e+07,-14.4073
8.47449e+07,-13.4167
8.47883e+07,-14.6257
8.48316e+07,-13.7944
8.4875e+07,-15.48
8.49183e+07,-18.6236
8.49617e+07,-23.6372
8.5005e+07,-26.2646
8.50483e+07,-27.298
8.50917e+07,-27.908
8.5135e+07,-26.7424
8.51784e+07,-22.7174
8.52217e+07,-17.7471
8.52651e+07,-16.0691
8.53084e+07,-16.5854
8.53518e+07,-16.74
8.53951e+07,-16.5312
8.54385e+07,-15.7622
8.54818e+07,-15.5966
8.55252e+07,-14.7404
8.55685e+07,-14.8237
8.56119e+07,-15.5455
8.56552e+07,-25.4041
8.56986e+07,-25.2919
8.57419e+07,-23.3114
8.57853e+07,-28.3259
8.58286e+07,-27.8723
8.5872e+07,-27.3719
8.59153e+07,-27.3668
8.59587e+07,-27.4637
8.6002e+07,-23.9048
8.60453e+07,-19.1764
8.60887e+07,-16.3201
8.6132e+07,-16.752
8.61754e+07,-16.9152
8.62187e+07,-19.2724
8.62621e+07,-22.1533
8.63054e+07,-24.2754
8.63488e+07,-21.1716
8.63921e+07,-24.0173
8.64355e+07,-21.4822
8.64788e+07,-23.6552
8.65222e+07,-24.633
8.65655e+07,-24.2189
8.66089e+07,-25.8704
8.66522e+07,-26.9164
8.66956e+07,-25.2095
8.67389e+07,-24.8227
8.67823e+07,-20.3607
8.68256e+07,-14.6898
8.6869e+07,-14.4762
8.69123e+07,-13.0695
8.69557e+07,-13.5779
8.6999e+07,-13.8537
8.70423e+07,-19.3411
8.70857e+07,-17.9795
8.7129e+07,-22.216
8.71724e+07,-23.0819
8.72157e+07,-23.9771
8.72591e+07,-23.6546
8.73024e+07,-24.0125
8.73458e+07,-24.8671
8.73891e+07,-26.5567
8.74325e+07,-25.1003
8.74758e+07,-22.9895
8.75192e+07,-21.2502
8.75625e+07,-21.2633
8.76059e+07,-14.065
8.76492e+07,-11.9812
8.76926e+07,-10.3087
8.77359e+07,-9.24315
8.77793e+07,-9.69592
8.78226e+07,-12.4131
8.7866e+07,-12.068
8.79093e+07,-21.6972
8.79527e+07,-21.3479
8.7996e+07,-22.6285
8.80393e+07,-24.4424
8.80827e+07,-24.5644
8.8126e+07,-23.0124
8.81694e+07,-23.249
8.82127e+07,-23.7595
8.82561e+07,-25.8329
8.82994e+07,-23.3539
8.83428e+07,-19.7008
8.83861e+07,-19.7566
8.84295e+07,-1.0493
8.84728e+07,13.7301
8.85162e+07,15.014
8.85595e+07,14.741
8.86029e+07,8.12335
8.86462e+07,-15.7864
8.86896e+07,-18.9992
8.87329e+07,-19.565
8.87763e+07,-20.1786
8.88196e+07,-22.2416
8.8863e+07,-23.7264
8.89063e+07,-24.1666
8.89496e+07,-24.0668
8.8993e+07,-25.119
8.90363e+07,-25.9395
8.90797e+07,-24.0307
8.9123e+07,-21.9391
8.91664e+07,-16.5457
8.92097e+07,-13.5619
8.92531e+07,-10.6483
8.92964e+07,-9.50832
8.93398e+07,-9.96912
8.93831e+07,-11.3395
8.94265e+07,-14.0351
8.94698e+07,-17.24
8.95132e+07,-16.0203
8.95565e+07,-15.164
8.95999e+07,-20.8835
8.96432e+07,-25.0774
8.96866e+07,-24.4681
8.97299e+07,-23.9791
8.97733e+07,-25.1742
8.98166e+07,-26.3884
8.986e+07,-27.0942
8.99033e+07,-25.3908
8.99466e+07,-24.6702
8.999e+07,-16.9062
9.00333e+07,-15.7416
9.00767e+07,-11.7682
9.012e+07,-8.91025
9.01634e+07,-9.89206
9.02067e+07,-12.1186
9.02501e+07,-16.8271
9.02934e+07,-24.0125
9.03368e+07,-24.5064
9.03801e+07,-25.0186
9.04235e+07,-26.18
9.04668e+07,-24.1876
9.05102e+07,-21.9808
9.05535e+07,-22.4181
9.05969e+07,-26.8133
9.06402e+07,-27.7223
9.06836e+07,-25.9923
9.07269e+07,-26.1277
9.07703e+07,-25.7619
9.08136e+07,-21.7915
9.0857e+07,-18.0863
9.09003e+07,-14.5568
9.09436e+07,-15.4561
9.0987e+07,-17.4915
9.10303e+07,-20.723
9.10737e+07,-22.6484
9.1117e+07,-21.0992
9.11604e+07,-23.7959
9.12037e+07,-26.0651
9.12471e+07,-26.3963
9.12904e+07,-27.7657
9.13338e+07,-21.3455
9.13771e+07,-22.0098
9.14205e+07,-25.6008
9.14638e+07,-3.47586
9.15072e+07,-2.83478
9.15505e+07,-2.87532
9.15939e+07,-5.97114
9.16372e+07,-17.5581
9.16806e+07,-16.4889
9.17239e+07,-11.8425
9.17673e+07,-15.4373
9.18106e+07,-18.667
9.1854e+07,-20.56
9.18973e+07,-24.1807
9.19406e+07,-25.2044
9.1984e+07,-26.9457
9.20273e+07,-26.6061
9.20707e+07,-25.8445
9.2114e+07,-18.8834
9.21574e+07,-17.8549
9.22007e+07,-20.2737
9.22441e+07,-3.60291
9.22874e+07,-5.13651
9.23308e+07,-3.98256
9.23741e+07,-3.9951
9.24175e+07,-11.1628
9.24608e+07,-14.2959
9.25042e+07,-13.6767
9.25475e+07,-14.6474
9.25909e+07,-15.1175
9.26342e+07,-16.0676
9.26776e+07,-20.5783
9.27209e+07,-25.0062
9.27643e+07,-26.2435
9.28076e+07,-27.8968
9.2851e+07,-27.1044
9.28943e+07,-26.8609
9.29376e+07,-12.4511
9.2981e+07,-12.4144
9.30243e+07,-11.2779
9.30677e+07,4.04532
9.3111e+07,4.08654
9.31544e+07,3.7636
9.31977e+07,1.33987
9.32411e+07,-13.3372
9.32844e+07,-12.3075
9.33278e+07,-10.4061
9.33711e+07,-12.4455
9.34145e+07,-12.3765
9.34578e+07,-19.743
9.35012e+07,-22.127
9.35445e+07,-19.1485
9.35879e+07,-19.7722
9.36312e+07,-27.3867
9.36746e+07,-27.4512
9.37179e+07,-16.4915
9.37613e+07,-13.1711
9.38046e+07,-16.4383
9.38479e+07,1.41966
9.38913e+07,3.32025
9.39346e+07,3.24452
9.3978e+07,1.56329
9.40213e+07,-3.80465
9.40647e+07,-12.0951
9.4108e+07,-9.48293
9.41514e+07,-13.5042
9.41947e+07,-12.8263
9.42381e+07,-17.0645
9.42814e+07,-18.5629
9.43248e+07,-17.4872
9.43681e+07,-20.0425
9.44115e+07,-25.819
9.44548e+07,-27.7821
9.44982e+07,-26.1678
9.45415e+07,-18.678
9.45849e+07,-19.2505
9.46282e+07,-0.840068
9.46716e+07,-0.0216548
9.47149e+07,-0.990313
9.47583e+07,-2.92937
9.48016e+07,-2.46003
9.48449e+07,-15.4468
9.48883e+07,-17.2382
9.49316e+07,-15.6482
9.4975e+07,-16.7795
9.50183e+07,-18.0175
9.50617e+07,-23.4622
9.5105e+07,-12.8009
9.51484e+07,-13.3504
9.51917e+07,-16.4552
9.52351e+07,-25.6084
9.52784e+07,-24.8954
9.53218e+07,-22.8065
9.53651e+07,-21.5749
9.54085e+07,-21.8574
9.54518e+07,-7.13094
9.54952e+07,-7.889
9.55385e+07,-9.37826
9.55819e+07,-10.8009
9.56252e+07,-19.4901
9.56686e+07,-15.9065
9.57119e+07,-16.4914
9.57553e+07,-16.6267
9.57986e+07,-19.1681
9.58419e+07,-24.2929
9.58853e+07,-26.437
9.59286e+07,-26.2933
9.5972e+07,-26.674
9.60153e+07,-21.8451
9.60587e+07,-18.7353
9.6102e+07,-17.5108
9.61454e+07,-18.2405
9.61887e+07,-17.2034
9.62321e+07,-15.0137
9.62754e+07,-13.6118
9.63188e+07,-8.85573
9.63621e+07,-7.55076
9.64055e+07,-9.18077
9.64488e+07,-17.4657
9.64922e+07,-15.69
9.65355e+07,-17.7201
9.65789e+07,-18.9184
9.66222e+07,-22.0618
9.66656e+07,-21.8379
9.67089e+07,-24.7568
9.67523e+07,-25.1371
9.67956e+07,-16.15
9.68389e+07,-18.2622
9.68823e+07,-17.0357
9.69256e+07,-16.6352
9.6969e+07,-16.8188
9.70123e+07,-18.2758
9.70557e+07,-6.23187
9.7099e+07,-6.42519
9.71424e+07,-2.76888
9.71857e+07,-2.27697
9.72291e+07,-13.2918
9.72724e+07,-16.1714
9.73158e+07,-14.6319
9.73591e+07,-18.3224
9.74025e+07,-19.4642
9.74458e+07,-19.5554
9.74892e+07,-14.6985
9.75325e+07,-15.4736
9.75759e+07,-15.9906
9.76192e+07,-17.0022
9.76626e+07,-16.2987
9.77059e+07,-15.1886
9.77492e+07,-14.0317
9.77926e+07,-14.9583
9.78359e+07,-18.2699
9.78793e+07,-4.64937
9.79226e+07,-5.02736
9.7966e+07,-4.62199
9.80093e+07,-17.9275
9.80527e+07,-15.3473
9.8096e+07,-16.2755
9.81394e+07,-17.5382
9.81827e+07,-18.6395
9.82261e+07,-21.2845
9.82694e+07,-26.9185
9.83128e+07,-25.2177
9.83561e+07,-17.2079
9.83995e+07,-13.1424
9.84428e+07,-12.1117
9.84862e+07,-12.1195
9.85295e+07,-9.47377
9.85729e+07,-10.7295
9.86162e+07,-13.5452
9.86596e+07,-15.3399
9.87029e+07,1.12391
9.87462e+07,1.51556
9.87896e+07,-13.6237
9.88329e+07,-18.1724
9.88763e+07,-15.7763
9.89196e+07,-16.3685
9.8963e+07,-17.7618
9.90063e+07,-18.2397
9.90497e+07,-19.7603
9.9093e+07,-23.4711
9.91364e+07,-13.9387
9.91797e+07,-18.3764
9.92231e+07,-18.7146
9.92664e+07,-16.3431
9.93098e+07,-15.8706
9.93531e+07,-16.3494
9.93965e+07,-16.4927
9.94398e+07,-18.9686
9.94832e+07,-15.7605
9.95265e+07,-16.6168
9.95699e+07,-16.666
9.96132e+07,-21.0211
9.96566e+07,-19.6789
9.96999e+07,-17.5114
9.97432e+07,-17.5148
9.97866e+07,-18.9438
9.98299e+07,-21.2097
9.98733e+07,-25.1769
9.99166e+07,-24.45
9.996e+07,-23.1821
1.00003e+08,-17.7741
1.00047e+08,-16.7543
1.0009e+08,-16.9407
1.00133e+08,-16.8681
1.00177e+08,-17.7198
1.0022e+08,-20.292
1.00263e+08,-15.6589
1.00307e+08,-13.0849
1.0035e+08,-10.9602
1.00393e+08,-10.1778
1.00437e+08,-22.4603
1.0048e+08,-21.1489
1.00524e+08,-19.5821
1.00567e+08,-19.4311
1.0061e+08,-21.7127
1.00654e+08,-22.8688
1.00697e+08,-23.7397
1.0074e+08,-23.5528
1.00784e+08,-26.5699
1.00827e+08,-23.0348
1.0087e+08,-20.6165
1.00914e+08,-19.6141
1.00957e+08,-19.9229
1.01e+08,-20.7693
1.01044e+08,-12.3697
1.01087e+08,-8.20511
1.0113e+08,-7.05068
1.01174e+08,-7.78279
1.01217e+08,-13.966
1.0126e+08,-20.9161
1.01304e+08,-19.598
1.01347e+08,-21.2778
1.0139e+08,-20.5453
1.01434e+08,-24.1561
1.01477e+08,-22.7296
1.01521e+08,-23.836
1.01564e+08,-23.3291
1.01607e+08,-24.6123
1.01651e+08,-17.1472
1.01694e+08,-15.0108
1.01737e+08,-15.138
1.01781e+08,-16.2157
1.01824e+08,-16.4641
1.01867e+08,-4.18674
1.01911e+08,-3.57803
1.01954e+08,-4.09856
1.01997e+08,-5.59765
1.02041e+08,-20.4823
1.02084e+08,-21.019
1.02127e+08,-20.5364
1.02171e+08,-21.2011
1.02214e+08,-22.4553
1.02257e+08,-24.035
1.02301e+08,-25.8676
1.02344e+08,-25.0307
1.02387e+08,-25.5325
1.02431e+08,-20.2592
1.02474e+08,-17.2236
1.02518e+08,-16.1665
1.02561e+08,-15.3341
1.02604e+08,-16.8582
1.02648e+08,-13.2871
1.02691e+08,-13.8781
1.02734e+08,-15.8044
1.02778e+08,-22.7362
1.02821e+08,-21.203
1.02864e+08,-19.2728
1.02908e+08,-21.1928
1.02951e+08,-20.528
1.02994e+08,-22.5424
1.03038e+08,-22.0937
1.03081e+08,-25.1458
1.03124e+08,-25.2526
1.03168e+08,-25.2708
1.03211e+08,-17.7639
1.03254e+08,-14.3874
1.03298e+08,-13.064
1.03341e+08,-12.5963
1.03384e+08,-13.7987
1.03428e+08,-14.4078
1.03471e+08,-4.66029
1.03515e+08,-3.90608
1.03558e+08,-4.15545
1.03601e+08,-5.0426
1.03645e+08,-18.8506
1.03688e+08,-22.5055
1.03731e+08,-22.7867
1.03775e+08,-26.8256
1.03818e+08,-27.0557
1.03861e+08,-25.919
1.03905e+08,-25.9061
1.03948e+08,-26.3866
1.03991e+08,-25.4538
1.04035e+08,-17.9775
1.04078e+08,-15.9783
1.04121e+08,-14.5044
1.04165e+08,-13.5971
1.04208e+08,-15.529
1.04251e+08,-6.00208
1.04295e+08,-4.95627
1.04338e+08,-4.87586
1.04381e+08,-4.45694
1.04425e+08,-11.961
1.04468e+08,-18.1004
1.04512e+08,-18.4515
1.04555e+08,-25.654
1.04598e+08,-26.6658
1.04642e+08,-24.6306
1.04685e+08,-25.7824
1.04728e+08,-23.999
1.04772e+08,-25.2119
1.04815e+08,-22.7261
1.04858e+08,-18.5619
1.04902e+08,-18.4573
1.04945e+08,-18.2189
1.04988e+08,-19.4046
1.05032e+08,-19.9673
1.05075e+08,-7.04883
1.05118e+08,-6.91679
1.05162e+08,-6.90682
1.05205e+08,-12.0903
1.05248e+08,-27.2105
1.05292e+08,-29.3634
1.05335e+08,-29.6177
1.05378e+08,-28.5491
1.05422e+08,-29.0444
1.05465e+08,-27.5333
1.05509e+08,-25.0795
1.05552e+08,-25.7855
1.05595e+08,-27.2731
1.05639e+08,-22.0855
1.05682e+08,-21.239
1.05725e+08,-20.3947
1.05769e+08,-20.1445
1.05812e+08,-21.9417
1.05855e+08,-20.2984
1.05899e+08,-8.30359
1.05942e+08,-8.76433
1.05985e+08,-12.3771
1.06029e+08,-33.0057
1.06072e+08,-28.5818
1.06115e+08,-27.4322
1.06159e+08,-27.0265
1.06202e+08,-28.4514
1.06245e+08,-14.5074
1.06289e+08,-13.4219
1.06332e+08,-14.3273
1.06375e+08,-14.2685
1.06419e+08,-18.2615
1.06462e+08,-19.6832
1.06506e+08,-17.4443
1.06549e+08,-19.1332
1.06592e+08,-18.2514
1.06636e+08,-21.5745
1.06679e+08,-22.9068
1.06722e+08,-24.0413
1.06766e+08,-24.808
1.06809e+08,-29.3876
1.06852e+08,-32.1202
1.06896e+08,-32.0652
1.06939e+08,-30.8343
1.06982e+08,-28.0677
1.07026e+08,-28.5464
1.07069e+08,-25.9099
1.07112e+08,-24.6512
1.07156e+08,-23.6208
1.07199e+08,-23.9818
1.07242e+08,-18.4597
1.07286e+08,-15.5738
1.07329e+08,-17.1428
1.07372e+08,-15.9706
1.07416e+08,-18.4026
1.07459e+08,-5.54026
1.07503e+08,-7.29885
1.07546e+08,-9.13619
1.07589e+08,-11.1861
1.07633e+08,-22.8921
1.07676e+08,-27.9056
1.07719e+08,-26.8136
1.07763e+08,-27.5208
1.07806e+08,-27.8954
1.07849e+08,-24.224
1.07893e+08,-18.6109
1.07936e+08,-20.3607
1.07979e+08,-20.2119
1.08023e+08,-19.366
1.08066e+08,-18.2787
1.08109e+08,-14.7717
1.08153e+08,-16.3042
1.08196e+08,-16.8539
1.08239e+08,-17.2955
1.08283e+08,-25.1363
1.08326e+08,-26.009
1.08369e+08,-30.7792
1.08413e+08,-31.7279
1.08456e+08,-32.5081
1.08499e+08,-29.7875
1.08543e+08,-27.4371
1.08586e+08,-25.8225
1.0863e+08,-24.4088
1.08673e+08,-24.1496
1.08716e+08,-23.5811
1.0876e+08,-22.8584
1.08803e+08,-20.2092
1.08846e+08,-19.1089
1.0889e+08,-16.7038
1.08933e+08,-15.8517
1.08976e+08,-16.1453
1.0902e+08,-18.8675
1.09063e+08,-21.8224
1.09106e+08,-26.2481
1.0915e+08,-29.6767
1.09193e+08,-31.5475
1.09236e+08,-32.6418
1.0928e+08,-28.3935
1.09323e+08,-28.3435
1.09366e+08,-28.7653
1.0941e+08,-27.5136
1.09453e+08,-26.8766
1.09496e+08,-26.2765
1.0954e+08,-25.7869
1.09583e+08,-24.7323
1.09627e+08,-19.5831
1.0967e+08,-19.281
1.09713e+08,-17.8397
1.09757e+08,-17.6881
1.098e+08,-18.3714
1.09843e+08,-21.4999
1.09887e+08,-28.137
1.0993e+08,-30.2791
1.09973e+08,-31.2283
1.10017e+08,-31.3268
1.1006e+08,-30.8355
1.10103e+08,-30.5574
1.10147e+08,-30.742
1.1019e+08,-28.0732
1.10233e+08,-29.1197
1.10277e+08,-25.6895
1.1032e+08,-27.2532
1.10363e+08,-27.3504
1.10407e+08,-22.8782
1.1045e+08,-20.0367
1.10493e+08,-17.4042
1.10537e+08,-18.9973
1.1058e+08,-19.9917
1.10624e+08,-21.095
1.10667e+08,-24.2658
1.1071e+08,-30.0775
1.10754e+08,-31.2602
1.10797e+08,-29.0333
1.1084e+08,-28.526
1.10884e+08,-28.2532
1.10927e+08,-27.4991
1.1097e+08,-28.7058
1.11014e+08,-28.1614
1.11057e+08,-27.6716
1.111e+08,-25.9071
1.11144e+08,-26.4022
1.11187e+08,-26.5551
1.1123e+08,-23.6782
1.11274e+08,-22.3338
1.11317e+08,-20.5211
1.1136e+08,-21.3816
1.11404e+08,-21.0879
1.11447e+08,-26.4104
1.1149e+08,-26.7466
1.11534e+08,-31.5192
1.11577e+08,-31.1937
1.11621e+08,-29.3762
1.11664e+08,-28.6094
1.11707e+08,-28.6083
1.11751e+08,-27.9972
1.11794e+08,-26.1562
1.11837e+08,-26.6532
1.11881e+08,-26.1647
1.11924e+08,-24.4102
1.11967e+08,-24.5509
1.12011e+08,-22.0725
1.12054e+08,-19.0138
1.12097e+08,-18.4625
1.12141e+08,-20.1349
1.12184e+08,-20.372
1.12227e+08,-23.9716
1.12271e+08,-26.7741
1.12314e+08,-31.5075
1.12357e+08,-32.7616
1.12401e+08,-31.7694
1.12444e+08,-30.3698
1.12487e+08,-29.5295
1.12531e+08,-29.7816
1.12574e+08,-29.5735
1.12618e+08,-27.8118
1.12661e+08,-25.9133
1.12704e+08,-25.24
1.12748e+08,-26.1345
1.12791e+08,-23.0878
1.12834e+08,-21.3922
1.12878e+08,-21.8108
1.12921e+08,-22.0185
1.12964e+08,-23.5135
1.13008e+08,-26.3274
1.13051e+08,-27.6452
1.13094e+08,-30.0296
1.13138e+08,-32.9138
1.13181e+08,-30.1685
1.13224e+08,-31.6261
1.13268e+08,-30.2849
1.13311e+08,-31.2727
1.13354e+08,-28.8262
1.13398e+08,-26.0248
1.13441e+08,-26.4893
1.13484e+08,-24.6768
1.13528e+08,-25.5766
1.13571e+08,-25.2152
1.13615e+08,-24.7513
1.13658e+08,-22.9167
1.13701e+08,-20.8583
1.13745e+08,-20.546
1.13788e+08,-22.792
1.13831e+08,-21.7371
1.13875e+08,-31.1366
1.13918e+08,-31.7179
1.13961e+08,-33.3417
1.14005e+08,-33.6527
1.14048e+08,-32.071
1.14091e+08,-30.9577
1.14135e+08,-29.8651
1.14178e+08,-29.6581
1.14221e+08,-27.8011
1.14265e+08,-24.8872
1.14308e+08,-25.3219
1.14351e+08,-24.1434
1.14395e+08,-27.5055
1.14438e+08,-21.9704
1.14481e+08,-20.7771
1.14525e+08,-20.8192
1.14568e+08,-20.9236
1.14612e+08,-23.004
1.14655e+08,-28.0397
1.14698e+08,-30.1967
1.14742e+08,-31.8341
1.14785e+08,-32.4344
1.14828e+08,-33.3108
1.14872e+08,-31.7555
1.14915e+08,-31.7776
1.14958e+08,-28.3108
1.15002e+08,-28.5836
1.15045e+08,-28.128
1.15088e+08,-26.3402
1.15132e+08,-27.4847
1.15175e+08,-27.2776
1.15218e+08,-28.1486
1.15262e+08,-22.3193
1.15305e+08,-22.2081
1.15348e+08,-22.5901
1.15392e+08,-23.8746
1.15435e+08,-25.8045
1.15478e+08,-30.9958
1.15522e+08,-33.9496
1.15565e+08,-34.0125
1.15609e+08,-32.494
1.15652e+08,-33.6793
1.15695e+08,-32.1461
1.15739e+08,-30.285
1.15782e+08,-26.722
1.15825e+08,-26.9527
1.15869e+08,-28.2773
1.15912e+08,-28.1733
1.15955e+08,-27.7522
1.15999e+08,-28.3793
1.16042e+08,-26.5345
1.16085e+08,-24.7624
1.16129e+08,-24.4709
1.16172e+08,-22.0708
1.16215e+08,-26.0097
1.16259e+08,-28.3015
1.16302e+08,-30.7024
1.16345e+08,-32.7394
1.16389e+08,-31.3712
1.16432e+08,-30.9803
1.16475e+08,-29.9429
1.16519e+08,-27.8193
1.16562e+08,-30.4285
1.16606e+08,-29.3642
1.16649e+08,-29.0924
1.16692e+08,-24.9896
1.16736e+08,-27.5563
1.16779e+08,-26.4353
1.16822e+08,-28.5717
1.16866e+08,-25.6509
1.16909e+08,-25.4073
1.16952e+08,-26.061
1.16996e+08,-26.379
1.17039e+08,-29.1561
1.17082e+08,-29.8322
1.17126e+08,-32.0551
1.17169e+08,-34.6621
1.17212e+08,-33.6022
1.17256e+08,-31.5044
1.17299e+08,-32.4032
1.17342e+08,-32.0156
1.17386e+08,-30.2674
1.17429e+08,-30.0208
1.17472e+08,-27.6275
1.17516e+08,-28.2615
1.17559e+08,-28.2001
1.17603e+08,-26.6531
1.17646e+08,-23.5706
1.17689e+08,-23.0193
1.17733e+08,-21.3321
1.17776e+08,-24.1756
1.17819e+08,-26.675
1.17863e+08,-30.1901
1.17906e+08,-31.5161
1.17949e+08,-33.2556
1.17993e+08,-34.3726
1.18036e+08,-32.1891
1.18079e+08,-30.6237
1.18123e+08,-30.6114
1.18166e+08,-31.854
1.18209e+08,-29.7501
1.18253e+08,-27.3929
1.18296e+08,-27.764
1.18339e+08,-26.6186
1.18383e+08,-27.467
1.18426e+08,-27.7443
1.18469e+08,-28.3657
1.18513e+08,-28.0525
1.18556e+08,-29.0634
1.186e+08,-26.805
1.18643e+08,-31.8273
1.18686e+08,-31.2234
1.1873e+08,-34.7359
1.18773e+08,-34.1473
1.18816e+08,-34.0868
1.1886e+08,-32.7246
1.18903e+08,-31.5814
1.18946e+08,-31.4001
1.1899e+08,-28.9273
1.19033e+08,-28.9534
1.19076e+08,-26.999
1.1912e+08,-26.9803
1.19163e+08,-27.0464
1.19206e+08,-27.8295
1.1925e+08,-28.3437
1.19293e+08,-27.5947
1.19336e+08,-26.217
1.1938e+08,-27.6135
1.19423e+08,-28.205
1.19466e+08,-29.2563
1.1951e+08,-33.3394
1.19553e+08,-33.7048
1.19597e+08,-33.5594
1.1964e+08,-32.8054
1.19683e+08,-33.4653
1.19727e+08,-30.8158
1.1977e+08,-29.5944
1.19813e+08,-28.2681
1.19857e+08,-28.5188
1.199e+08,-28.3062
1.19943e+08,-27.2045
1.19987e+08,-28.7551
1.2003e+08,-27.0472
1.20073e+08,-28.6547
1.20117e+08,-28.7863
1.2016e+08,-28.7172
1.20203e+08,-27.7455
1.20247e+08,-30.9543
1.2029e+08,-30.8556
1.20333e+08,-34.7865
1.20377e+08,-34.936
1.2042e+08,-32.7217
1.20463e+08,-33.8041
1.20507e+08,-32.8931
1.2055e+08,-32.6145
1.20594e+08,-32.6855
1.20637e+08,-28.9843
1.2068e+08,-29.2696
1.20724e+08,-28.6891
1.20767e+08,-28.2216
1.2081e+08,-26.9788
1.20854e+08,-29.926
1.20897e+08,-27.109
1.2094e+08,-28.1952
1.20984e+08,-28.9894
1.21027e+08,-29.5507
1.2107e+08,-31.026
1.21114e+08,-33.8093
1.21157e+08,-34.8617
1.212e+08,-34.5443
1.21244e+08,-33.0255
1.21287e+08,-33.7244
1.2133e+08,-33.6668
1.21374e+08,-32.7973
1.21417e+08,-31.6718
1.2146e+08,-30.4975
1.21504e+08,-30.31
1.21547e+08,-29.4321
1.21591e+08,-29.9296
1.21634e+08,-32.1279
1.21677e+08,-32.0856
1.21721e+08,-29.8359
1.21764e+08,-30.5804
1.21807e+08,-31.923
1.21851e+08,-34.5022
1.21894e+08,-34.2698
1.21937e+08,-35.2012
1.21981e+08,-34.9697
1.22024e+08,-34.065
1.22067e+08,-33.6352
1.22111e+08,-31.749
1.22154e+08,-33.0456
1.22197e+08,-30.854
1.22241e+08,-31.6488
1.22284e+08,-31.5024
1.22327e+08,-29.4064
1.22371e+08,-29.9693
1.22414e+08,-31.2866
1.22457e+08,-31.4979
1.22501e+08,-29.2393
1.22544e+08,-27.5907
1.22588e+08,-30.8102
1.22631e+08,-31.1417
1.22674e+08,-34.1069
1.22718e+08,-33.8189
1.22761e+08,-36.0848
1.22804e+08,-35.8044
1.22848e+08,-32.5237
1.22891e+08,-32.7507
1.22934e+08,-29.4592
1.22978e+08,-32.6632
1.23021e+08,-31.8671
1.23064e+08,-31.4664
1.23108e+08,-31.6464
1.23151e+08,-29.7717
1.23194e+08,-30.9906
1.23238e+08,-29.8037
1.23281e+08,-30.5372
1.23324e+08,-29.8381
1.23368e+08,-29.7135
1.23411e+08,-32.718
1.23454e+08,-35.3497
1.23498e+08,-34.5052
1.23541e+08,-36.1541
1.23585e+08,-35.2527
1.23628e+08,-33.8181
1.23671e+08,-34.574
1.23715e+08,-33.3158
1.23758e+08,-33.8497
1.23801e+08,-32.4769
1.23845e+08,-31.4859
1.23888e+08,-31.705
1.23931e+08,-30.1916
1.23975e+08,-32.2238
1.24018e+08,-32.4809
1.24061e+08,-29.5292
1.24105e+08,-29.7324
1.24148e+08,-31.4109
1.24191e+08,-32.1908
1.24235e+08,-35.5266
1.24278e+08,-35.3473
1.24321e+08,-36.952
1.24365e+08,-35.1695
1.24408e+08,-35.5348
1.24451e+08,-34.9084
1.24495e+08,-33.6648
1.24538e+08,-33.4346
1.24582e+08,-32.9118
1.24625e+08,-33.3049
1.24668e+08,-32.0656
1.24712e+08,-32.109
1.24755e+08,-30.92
1.24798e+08,-31.8621
1.24842e+08,-32.8665
1.24885e+08,-32.2952
1.24928e+08,-33.4352
1.24972e+08,-34.4685
1.25015e+08,-35.7781
1.25058e+08,-35.0036
1.25102e+08,-35.4427
1.25145e+08,-36.5647
1.25188e+08,-34.8284
1.25232e+08,-35.1608
1.25275e+08,-34.2212
1.25318e+08,-34.926
1.25362e+08,-32.3341
1.25405e+08,-32.1654
1.25448e+08,-33.1422
1.25492e+08,-32.7637
1.25535e+08,-30.7682
1.25579e+08,-32.1372
1.25622e+08,-33.3339
1.25665e+08,-33.7243
1.25709e+08,-35.356
1.25752e+08,-37.3748
1.25795e+08,-36.7569
1.25839e+08,-37.651
1.25882e+08,-36.1336
1.25925e+08,-36.4322
1.25969e+08,-36.0276
1.26012e+08,-35.8042
1.26055e+08,-35.3191
1.26099e+08,-33.3359
1.26142e+08,-34.6057
1.26185e+08,-35.035
1.26229e+08,-34.7285
1.26272e+08,-33.2503
1.26315e+08,-33.1742
1.26359e+08,-33.2054
1.26402e+08,-32.5351
1.26445e+08,-33.8902
1.26489e+08,-34.6202
1.26532e+08,-34.2325
1.26576e+08,-35.6219
1.26619e+08,-36.3469
1.26662e+08,-36.4999
1.26706e+08,-36.7618
1.26749e+08,-36.7941
1.26792e+08,-35.7598
1.26836e+08,-35.5886
1.26879e+08,-35.3527
1.26922e+08,-35.4825
1.26966e+08,-33.5558
1.27009e+08,-31.1034
1.27052e+08,-34.3076
1.27096e+08,-33.2397
1.27139e+08,-31.4576
1.27182e+08,-32.737
1.27226e+08,-34.7928
1.27269e+08,-35.7651
1.27312e+08,-35.7583
1.27356e+08,-36.8701
1.27399e+08,-38.0208
1.27442e+08,-36.0693
1.27486e+08,-37.41
1.27529e+08,-36.495
1.27573e+08,-36.5748
1.27616e+08,-36.1241
1.27659e+08,-34.9922
1.27703e+08,-34.0818
1.27746e+08,-35.5816
1.27789e+08,-34.7182
1.27833e+08,-34.025
1.27876e+08,-33.4456
1.27919e+08,-33.7425
1.27963e+08,-34.2155
1.28006e+08,-35.1841
1.28049e+08,-36.35
1.28093e+08,-35.2945
1.28136e+08,-37.4135
1.28179e+08,-38.4973
1.28223e+08,-37.6636
1.28266e+08,-38.1341
1.28309e+08,-36.8222
1.28353e+08,-36.4686
1.28396e+08,-36.1543
1.28439e+08,-35.7198
1.28483e+08,-35.645
1.28526e+08,-34.3693
1.2857e+08,-36.2401
1.28613e+08,-35.0139
1.28656e+08,-35.2134
1.287e+08,-35.0197
1.28743e+08,-33.3805
1.28786e+08,-35.0705
1.2883e+08,-34.2297
1.28873e+08,-35.2776
1.28916e+08,-35.9488
1.2896e+08,-37.703
1.29003e+08,-36.9566
1.29046e+08,-37.3495
1.2909e+08,-37.7276
1.29133e+08,-35.912
1.29176e+08,-35.3907
1.2922e+08,-37.2563
1.29263e+08,-36.3703
1.29306e+08,-34.4678
1.2935e+08,-35.2636
1.29393e+08,-34.9731
1.29436e+08,-34.4312
1.2948e+08,-34.152
1.29523e+08,-35.4859
1.29567e+08,-34.7112
1.2961e+08,-35.7033
1.29653e+08,-36.9955
1.29697e+08,-34.419
1.2974e+08,-37.5034
1.29783e+08,-38.0689
1.29827e+08,-38.402
1.2987e+08,-38.423
1.29913e+08,-38.0512
1.29957e+08,-37.1991
1.3e+08,-37.609
