FileType,0
Number of Points,3000
Sweep Time,3e+08
Start Frequency,0
Stop Frequency,1.3e+08
Average Count,1000
Average Type,0
RBW,10000
RBW Filter,0
RBW Filter BW,0
VBW,10000
Sweep Type,0
X Axis Scale,1
PreAmp State,0
Trigger Source,0
Trigger Level,-25
Trigger Edge,0
Trigger Delay Switch,0
Trigger Delay,1
Attenuation,40
Ref Level Offset,0
External Gain,0
Trace Type,0
Detector,0
Trace Math,5
Trace Math Oper1,4
Trace Math Oper2,5
Trace Math Offset,0
Trace Name,0
Full Span,1.3e+08
Y Axis Unit,0
DATA,
0,9.92382
43347.8,-32.5969
86695.6,-27.7391
130043,-24.478
173391,-20.9059
216739,-22.396
260087,-22.0888
303434,-25.5046
346782,-25.9975
390130,-26.6826
433478,-27.9698
476826,-27.4319
520173,-26.3647
563521,-24.285
606869,-24.3886
650217,-23.4199
693565,-22.001
736912,-18.0699
780260,-16.8559
823608,-18.1753
866956,-19.1323
910303,-21.7211
953651,-21.8954
996999,-20.6161
1.04035e+06,-22.8325
1.08369e+06,-23.6556
1.12704e+06,-25.9316
1.17039e+06,-26.2747
1.21374e+06,-25.9105
1.25709e+06,-26.9347
1.30043e+06,-25.8879
1.34378e+06,-21.8944
1.38713e+06,-23.6573
1.43048e+06,-22.448
1.47382e+06,-18.326
1.51717e+06,-14.3287
1.56052e+06,-12.3374
1.60387e+06,-11.4366
1.64722e+06,-15.1964
1.69056e+06,-18.0499
1.73391e+06,-21.3043
1.77726e+06,-22.0702
1.82061e+06,-22.5605
1.86395e+06,-23.5552
1.9073e+06,-25.1808
1.95065e+06,-24.131
1.994e+06,-24.1771
2.03735e+06,-25.2171
2.08069e+06,-25.2518
2.12404e+06,-22.9189
2.16739e+06,-21.7843
2.21074e+06,-21.9348
2.25408e+06,-21.236
2.29743e+06,-16.2748
2.34078e+06,-14.23
2.38413e+06,-14.0455
2.42748e+06,-16.0532
2.47082e+06,-18.9008
2.51417e+06,-20.0085
2.55752e+06,-22.5283
2.60087e+06,-21.7539
2.64421e+06,-22.1277
2.68756e+06,-24.4377
2.73091e+06,-25.5114
2.77426e+06,-24.9482
2.81761e+06,-23.6092
2.86095e+06,-13.7426
2.9043e+06,-12.2766
2.94765e+06,-10.5661
2.991e+06,-10.4313
3.03434e+06,-10.4254
3.07769e+06,-21.4225
3.12104e+06,-19.5721
3.16439e+06,-18.0972
3.20774e+06,-20.0448
3.25108e+06,-23.0947
3.29443e+06,-26.8681
3.33778e+06,-26.3534
3.38113e+06,-26.5625
3.42447e+06,-25.7834
3.46782e+06,-26.4809
3.51117e+06,-26.8467
3.55452e+06,-26.2149
3.59787e+06,-26.2634
3.64121e+06,-26.3216
3.68456e+06,-19.0722
3.72791e+06,-17.6648
3.77126e+06,-17.9145
3.8146e+06,-19.0949
3.85795e+06,-21.7015
3.9013e+06,-24.0228
3.94465e+06,-22.7892
3.988e+06,-22.4352
4.03134e+06,-23.021
4.07469e+06,-24.671
4.11804e+06,-27.1905
4.16139e+06,-27.2819
4.20473e+06,-26.6417
4.24808e+06,-28.135
4.29143e+06,-27.0713
4.33478e+06,-26.636
4.37813e+06,-25.4927
4.42147e+06,-23.9824
4.46482e+06,-13.9357
4.50817e+06,-9.22229
4.55152e+06,-7.97812
4.59486e+06,-8.76577
4.63821e+06,-9.47626
4.68156e+06,-9.16882
4.72491e+06,-15.7245
4.76826e+06,-14.4945
4.8116e+06,-15.4027
4.85495e+06,-15.4065
4.8983e+06,-23.6798
4.94165e+06,-25.7606
4.98499e+06,-25.4062
5.02834e+06,-26.4244
5.07169e+06,-27.0189
5.11504e+06,-27.0273
5.15839e+06,-27.0443
5.20173e+06,-22.2067
5.24508e+06,-21.7569
5.28843e+06,-6.58415
5.33178e+06,-4.5363
5.37513e+06,-3.8954
5.41847e+06,-4.30457
5.46182e+06,-6.67531
5.50517e+06,-19.7296
5.54852e+06,-10.8686
5.59186e+06,-11.508
5.63521e+06,-12.8946
5.67856e+06,-19.2418
5.72191e+06,-24.4193
5.76526e+06,-21.156
5.8086e+06,-24.3363
5.85195e+06,-27.032
5.8953e+06,-29.0535
5.93865e+06,-24.9858
5.98199e+06,-23.4466
6.02534e+06,-22.2093
6.06869e+06,-20.945
6.11204e+06,-5.86776
6.15539e+06,-6.8991
6.19873e+06,-7.52208
6.24208e+06,-7.36933
6.28543e+06,-16.1888
6.32878e+06,-17.419
6.37212e+06,-17.476
6.41547e+06,-17.2203
6.45882e+06,-18.0977
6.50217e+06,-26.4231
6.54552e+06,-19.4226
6.58886e+06,-18.3496
6.63221e+06,-20.264
6.67556e+06,-27.6674
6.71891e+06,-27.3934
6.76225e+06,-25.1895
6.8056e+06,-25.2452
6.84895e+06,-24.6735
6.8923e+06,-12.9666
6.93565e+06,-12.2078
6.97899e+06,-13.1786
7.02234e+06,-15.1166
7.06569e+06,-17.2548
7.10904e+06,-21.9224
7.15238e+06,-15.814
7.19573e+06,-17.0218
7.23908e+06,-20.1562
7.28243e+06,-22.8994
7.32578e+06,-26.4268
7.36912e+06,-24.4413
7.41247e+06,-26.4958
7.45582e+06,-27.8243
7.49917e+06,-23.6709
7.54251e+06,-23.5117
7.58586e+06,-19.357
7.62921e+06,-22.5726
7.67256e+06,-24.7776
7.71591e+06,-23.4717
7.75925e+06,-16.2212
7.8026e+06,-13.6322
7.84595e+06,-14.8665
7.8893e+06,-24.6169
7.93264e+06,-20.9455
7.97599e+06,-21.0365
8.01934e+06,-23.193
8.06269e+06,-25.679
8.10604e+06,-26.2224
8.14938e+06,-26.7119
8.19273e+06,-25.8032
8.23608e+06,-25.4365
8.27943e+06,-27.4429
8.32277e+06,-21.3097
8.36612e+06,-22.2875
8.40947e+06,-21.6935
8.45282e+06,-24.2909
8.49617e+06,-22.2479
8.53951e+06,-16.0387
8.58286e+06,-13.9053
8.62621e+06,-13.5628
8.66956e+06,-18.8966
8.7129e+06,-23.6469
8.75625e+06,-23.2492
8.7996e+06,-22.471
8.84295e+06,-23.2276
8.8863e+06,-27.5911
8.92964e+06,-27.389
8.97299e+06,-24.4405
9.01634e+06,-25.3566
9.05969e+06,-24.1578
9.10303e+06,-25.215
9.14638e+06,-22.5574
9.18973e+06,-22.2922
9.23308e+06,-21.4563
9.27643e+06,-23.3431
9.31977e+06,-18.8305
9.36312e+06,-17.0909
9.40647e+06,-18.1051
9.44982e+06,-18.741
9.49316e+06,-25.1155
9.53651e+06,-24.3878
9.57986e+06,-23.8793
9.62321e+06,-26.7359
9.66656e+06,-29.7518
9.7099e+06,-30.2347
9.75325e+06,-28.9188
9.7966e+06,-27.7649
9.83995e+06,-22.872
9.88329e+06,-19.2043
9.92664e+06,-18.9566
9.96999e+06,-17.8519
1.00133e+07,-16.5581
1.00567e+07,-18.5808
1.01e+07,-20.5151
1.01434e+07,-13.3789
1.01867e+07,-12.7009
1.02301e+07,-17.5224
1.02734e+07,-25.5706
1.03168e+07,-22.6487
1.03601e+07,-22.0993
1.04035e+07,-22.2339
1.04468e+07,-22.6709
1.04902e+07,-23.3184
1.05335e+07,-28.5935
1.05769e+07,-23.1907
1.06202e+07,-24.0598
1.06636e+07,-21.908
1.07069e+07,-22.7018
1.07503e+07,-21.2135
1.07936e+07,-20.116
1.08369e+07,-21.4182
1.08803e+07,-21.2169
1.09236e+07,-22.378
1.0967e+07,-18.4209
1.10103e+07,-20.2807
1.10537e+07,-21.6381
1.1097e+07,-21.2014
1.11404e+07,-20.1158
1.11837e+07,-18.8286
1.12271e+07,-20.808
1.12704e+07,-21.4093
1.13138e+07,-25.6838
1.13571e+07,-26.9699
1.14005e+07,-27.7454
1.14438e+07,-19.9223
1.14872e+07,-21.9665
1.15305e+07,-19.4406
1.15739e+07,-19.5118
1.16172e+07,-21.8552
1.16606e+07,-21.482
1.17039e+07,-16.7445
1.17472e+07,-16.3594
1.17906e+07,-16.2625
1.18339e+07,-17.63
1.18773e+07,-17.4557
1.19206e+07,-21.0886
1.1964e+07,-19.176
1.20073e+07,-20.6911
1.20507e+07,-20.9458
1.2094e+07,-24.4892
1.21374e+07,-29.8238
1.21807e+07,-28.1403
1.22241e+07,-29.7879
1.22674e+07,-30.643
1.23108e+07,-28.1929
1.23541e+07,-25.5702
1.23975e+07,-24.653
1.24408e+07,-25.1104
1.24842e+07,-17.5441
1.25275e+07,-16.5469
1.25709e+07,-16.1257
1.26142e+07,-15.5345
1.26576e+07,-16.0012
1.27009e+07,-20.2985
1.27442e+07,-23.2751
1.27876e+07,-22.6479
1.28309e+07,-23.3882
1.28743e+07,-27.0466
1.29176e+07,-30.9128
1.2961e+07,-28.189
1.30043e+07,-28.9607
1.30477e+07,-29.6103
1.3091e+07,-29.1981
1.31344e+07,-25.6857
1.31777e+07,-23.9505
1.32211e+07,-25.4084
1.32644e+07,-28.5307
1.33078e+07,-13.2993
1.33511e+07,-12.3289
1.33945e+07,-12.649
1.34378e+07,-13.8251
1.34812e+07,-15.7254
1.35245e+07,-26.9218
1.35679e+07,-25.894
1.36112e+07,-26.6947
1.36546e+07,-29.5857
1.36979e+07,-32.1708
1.37412e+07,-30.6225
1.37846e+07,-28.9279
1.38279e+07,-28.9636
1.38713e+07,-29.5865
1.39146e+07,-27.115
1.3958e+07,-25.8405
1.40013e+07,-26.6932
1.40447e+07,-24.7687
1.4088e+07,-25.7659
1.41314e+07,-21.388
1.41747e+07,-24.7133
1.42181e+07,-26.92
1.42614e+07,-27.2832
1.43048e+07,-27.4722
1.43481e+07,-26.1478
1.43915e+07,-26.7632
1.44348e+07,-27.6674
1.44782e+07,-28.8995
1.45215e+07,-31.6474
1.45649e+07,-30.7388
1.46082e+07,-31.179
1.46516e+07,-32.3002
1.46949e+07,-27.0727
1.47382e+07,-24.657
1.47816e+07,-22.4296
1.48249e+07,-20.6037
1.48683e+07,-23.9312
1.49116e+07,-15.4735
1.4955e+07,-16.3093
1.49983e+07,-15.4689
1.50417e+07,-17.2275
1.5085e+07,-26.6165
1.51284e+07,-30.6332
1.51717e+07,-28.4117
1.52151e+07,-32.2298
1.52584e+07,-32.5509
1.53018e+07,-32.7686
1.53451e+07,-30.0523
1.53885e+07,-30.1611
1.54318e+07,-26.1753
1.54752e+07,-26.7568
1.55185e+07,-22.6195
1.55619e+07,-20.3667
1.56052e+07,-21.8809
1.56485e+07,-24.9821
1.56919e+07,-25.8018
1.57352e+07,-21.8624
1.57786e+07,-20.2885
1.58219e+07,-22.5854
1.58653e+07,-23.694
1.59086e+07,-31.9268
1.5952e+07,-29.8476
1.59953e+07,-30.4816
1.60387e+07,-33.0689
1.6082e+07,-32.4405
1.61254e+07,-31.4151
1.61687e+07,-29.894
1.62121e+07,-29.621
1.62554e+07,-31.7481
1.62988e+07,-29.8704
1.63421e+07,-24.3308
1.63855e+07,-23.3059
1.64288e+07,-25.2495
1.64722e+07,-29.0825
1.65155e+07,-30.9404
1.65589e+07,-25.3532
1.66022e+07,-23.1058
1.66455e+07,-26.4604
1.66889e+07,-32.4866
1.67322e+07,-33.0241
1.67756e+07,-33.0145
1.68189e+07,-33.3362
1.68623e+07,-34.1643
1.69056e+07,-31.7901
1.6949e+07,-30.7763
1.69923e+07,-32.4687
1.70357e+07,-30.5536
1.7079e+07,-28.3066
1.71224e+07,-26.1923
1.71657e+07,-24.8652
1.72091e+07,-24.7692
1.72524e+07,-27.1126
1.72958e+07,-31.6111
1.73391e+07,-22.629
1.73825e+07,-20.7625
1.74258e+07,-22.5595
1.74692e+07,-29.8321
1.75125e+07,-33.8686
1.75559e+07,-32.8617
1.75992e+07,-32.6992
1.76425e+07,-32.8337
1.76859e+07,-33.0372
1.77292e+07,-27.2643
1.77726e+07,-25.4152
1.78159e+07,-24.6257
1.78593e+07,-24.461
1.79026e+07,-25.6461
1.7946e+07,-22.6315
1.79893e+07,-22.7734
1.80327e+07,-23.5079
1.8076e+07,-27.2478
1.81194e+07,-25.9725
1.81627e+07,-25.2444
1.82061e+07,-28.0307
1.82494e+07,-29.2017
1.82928e+07,-33.5186
1.83361e+07,-33.8021
1.83795e+07,-33.9724
1.84228e+07,-34.7129
1.84662e+07,-35.1839
1.85095e+07,-33.0308
1.85529e+07,-28.6415
1.85962e+07,-28.3777
1.86395e+07,-29.9964
1.86829e+07,-25.4027
1.87262e+07,-24.8762
1.87696e+07,-24.8424
1.88129e+07,-24.9974
1.88563e+07,-24.5499
1.88996e+07,-12.7832
1.8943e+07,-12.9977
1.89863e+07,-14.7018
1.90297e+07,-17.6244
1.9073e+07,-16.5133
1.91164e+07,-29.5524
1.91597e+07,-32.3498
1.92031e+07,-32.529
1.92464e+07,-32.7771
1.92898e+07,-30.1875
1.93331e+07,-27.1772
1.93765e+07,-25.1953
1.94198e+07,-27.9283
1.94632e+07,-29.4639
1.95065e+07,-26.442
1.95498e+07,-26.0015
1.95932e+07,-24.5062
1.96365e+07,-25.7649
1.96799e+07,-30.0322
1.97232e+07,-30.6844
1.97666e+07,-29.5831
1.98099e+07,-30.5443
1.98533e+07,-31.4398
1.98966e+07,-32.8571
1.994e+07,-35.2113
1.99833e+07,-32.8827
2.00267e+07,-33.5949
2.007e+07,-23.5175
2.01134e+07,-21.5259
2.01567e+07,-22.2025
2.02001e+07,-23.1401
2.02434e+07,-27.5603
2.02868e+07,-28.5833
2.03301e+07,-27.0052
2.03735e+07,-26.3188
2.04168e+07,-27.0621
2.04602e+07,-28.8752
2.05035e+07,-30.3973
2.05468e+07,-30.5604
2.05902e+07,-30.7073
2.06335e+07,-31.3284
2.06769e+07,-31.1792
2.07202e+07,-34.4788
2.07636e+07,-33.4094
2.08069e+07,-34.7373
2.08503e+07,-34.0989
2.08936e+07,-28.1118
2.0937e+07,-26.6511
2.09803e+07,-27.1632
2.10237e+07,-28.1443
2.1067e+07,-29.149
2.11104e+07,-28.1076
2.11537e+07,-25.6142
2.11971e+07,-26.0868
2.12404e+07,-26.0195
2.12838e+07,-29.8968
2.13271e+07,-28.7743
2.13705e+07,-31.0466
2.14138e+07,-32.1816
2.14572e+07,-32.6881
2.15005e+07,-33.1544
2.15438e+07,-33.5154
2.15872e+07,-32.5121
2.16305e+07,-34.6156
2.16739e+07,-30.4877
2.17172e+07,-29.711
2.17606e+07,-29.6566
2.18039e+07,-31.1921
2.18473e+07,-30.3081
2.18906e+07,-27.5028
2.1934e+07,-27.5052
2.19773e+07,-24.4318
2.20207e+07,-26.711
2.2064e+07,-28.2441
2.21074e+07,-30.8437
2.21507e+07,-31.6324
2.21941e+07,-31.8289
2.22374e+07,-33.2078
2.22808e+07,-33.1266
2.23241e+07,-33.2684
2.23675e+07,-33.1659
2.24108e+07,-32.6267
2.24542e+07,-34.5383
2.24975e+07,-32.5788
2.25408e+07,-30.3392
2.25842e+07,-31.7598
2.26275e+07,-28.5227
2.26709e+07,-28.2009
2.27142e+07,-27.4056
2.27576e+07,-26.4981
2.28009e+07,-25.1532
2.28443e+07,-28.7075
2.28876e+07,-31.3188
2.2931e+07,-33.4075
2.29743e+07,-31.8551
2.30177e+07,-31.8345
2.3061e+07,-33.453
2.31044e+07,-32.0818
2.31477e+07,-31.8505
2.31911e+07,-29.7438
2.32344e+07,-32.0199
2.32778e+07,-32.3274
2.33211e+07,-31.5452
2.33645e+07,-28.7068
2.34078e+07,-29.6419
2.34512e+07,-26.8137
2.34945e+07,-25.3646
2.35378e+07,-24.2003
2.35812e+07,-23.4763
2.36245e+07,-24.5815
2.36679e+07,-28.7011
2.37112e+07,-29.9593
2.37546e+07,-32.4013
2.37979e+07,-32.9775
2.38413e+07,-33.0242
2.38846e+07,-34.6462
2.3928e+07,-33.0286
2.39713e+07,-32.7694
2.40147e+07,-33.8707
2.4058e+07,-31.7782
2.41014e+07,-32.0563
2.41447e+07,-28.9172
2.41881e+07,-29.4136
2.42314e+07,-28.5494
2.42748e+07,-25.2515
2.43181e+07,-24.1016
2.43615e+07,-26.1376
2.44048e+07,-26.0284
2.44481e+07,-26.9634
2.44915e+07,-31.1508
2.45348e+07,-29.9282
2.45782e+07,-32.0436
2.46215e+07,-31.2468
2.46649e+07,-32.1403
2.47082e+07,-33.2224
2.47516e+07,-32.4113
2.47949e+07,-33.7945
2.48383e+07,-33.9792
2.48816e+07,-33.7091
2.4925e+07,-27.104
2.49683e+07,-29.6859
2.50117e+07,-28.3767
2.5055e+07,-28.8367
2.50984e+07,-28.5711
2.51417e+07,-28.9268
2.51851e+07,-29.2987
2.52284e+07,-29.3322
2.52718e+07,-31.4082
2.53151e+07,-35.2853
2.53585e+07,-34.1149
2.54018e+07,-33.0679
2.54451e+07,-32.835
2.54885e+07,-32.038
2.55318e+07,-30.6752
2.55752e+07,-31.7545
2.56185e+07,-33.7561
2.56619e+07,-33.4745
2.57052e+07,-33.9017
2.57486e+07,-23.853
2.57919e+07,-30.9609
2.58353e+07,-32.1706
2.58786e+07,-31.2671
2.5922e+07,-32.118
2.59653e+07,-29.9831
2.60087e+07,-30.6463
2.6052e+07,-33.2986
2.60954e+07,-33.8212
2.61387e+07,-32.8512
2.61821e+07,-33.8536
2.62254e+07,-34.9929
2.62688e+07,-34.3514
2.63121e+07,-32.0368
2.63555e+07,-32.9075
2.63988e+07,-33.2992
2.64421e+07,-34.8656
2.64855e+07,-33.3297
2.65288e+07,-32.6858
2.65722e+07,-31.3938
2.66155e+07,-31.3226
2.66589e+07,-32.0833
2.67022e+07,-31.8668
2.67456e+07,-31.7807
2.67889e+07,-30.6677
2.68323e+07,-31.3219
2.68756e+07,-33.8515
2.6919e+07,-33.5036
2.69623e+07,-33.8271
2.70057e+07,-33.1562
2.7049e+07,-34.7483
2.70924e+07,-34.7006
2.71357e+07,-35.5268
2.71791e+07,-34.6643
2.72224e+07,-33.5192
2.72658e+07,-33.1841
2.73091e+07,-30.5971
2.73525e+07,-31.4225
2.73958e+07,-31.412
2.74391e+07,-32.0697
2.74825e+07,-30.9051
2.75258e+07,-30.4753
2.75692e+07,-30.0735
2.76125e+07,-30.359
2.76559e+07,-32.6989
2.76992e+07,-34.129
2.77426e+07,-34.6078
2.77859e+07,-33.579
2.78293e+07,-34.1268
2.78726e+07,-34.4049
2.7916e+07,-35.0172
2.79593e+07,-34.8357
2.80027e+07,-33.9781
2.8046e+07,-35.4387
2.80894e+07,-34.3877
2.81327e+07,-32.0816
2.81761e+07,-31.817
2.82194e+07,-31.109
2.82628e+07,-29.1205
2.83061e+07,-30.0111
2.83494e+07,-31.3107
2.83928e+07,-30.426
2.84361e+07,-31.0307
2.84795e+07,-33.5468
2.85228e+07,-31.7806
2.85662e+07,-33.5084
2.86095e+07,-34.5284
2.86529e+07,-34.4781
2.86962e+07,-35.1879
2.87396e+07,-31.9085
2.87829e+07,-32.3944
2.88263e+07,-33.1712
2.88696e+07,-32.7405
2.8913e+07,-31.8448
2.89563e+07,-30.7509
2.89997e+07,-31.1988
2.9043e+07,-31.4564
2.90864e+07,-33.3948
2.91297e+07,-31.1376
2.91731e+07,-28.4485
2.92164e+07,-30.3206
2.92598e+07,-32.6848
2.93031e+07,-34.5711
2.93464e+07,-34.6878
2.93898e+07,-35.2058
2.94331e+07,-34.783
2.94765e+07,-35.509
2.95198e+07,-33.9141
2.95632e+07,-33.9209
2.96065e+07,-32.2001
2.96499e+07,-34.0697
2.96932e+07,-32.7546
2.97366e+07,-32.5517
2.97799e+07,-31.5145
2.98233e+07,-32.3301
2.98666e+07,-33.1983
2.991e+07,-32.3836
2.99533e+07,-31.8607
2.99967e+07,-30.5132
3.004e+07,-31.1033
3.00834e+07,-34.6495
3.01267e+07,-34.777
3.01701e+07,-34.5347
3.02134e+07,-34.7978
3.02568e+07,-34.3225
3.03001e+07,-30.2009
3.03434e+07,-30.3079
3.03868e+07,-30.7043
3.04301e+07,-30.8445
3.04735e+07,-34.0265
3.05168e+07,-33.0018
3.05602e+07,-30.418
3.06035e+07,-31.6822
3.06469e+07,-32.9251
3.06902e+07,-31.5328
3.07336e+07,-31.1895
3.07769e+07,-31.3328
3.08203e+07,-30.7475
3.08636e+07,-32.6227
3.0907e+07,-34.3314
3.09503e+07,-34.1616
3.09937e+07,-35.5231
3.1037e+07,-33.0866
3.10804e+07,-32.9501
3.11237e+07,-31.8393
3.11671e+07,-31.5221
3.12104e+07,-34.0931
3.12538e+07,-32.8891
3.12971e+07,-32.0604
3.13404e+07,-30.3623
3.13838e+07,-31.0054
3.14271e+07,-31.5596
3.14705e+07,-32.4592
3.15138e+07,-32.1076
3.15572e+07,-32.9238
3.16005e+07,-32.147
3.16439e+07,-33.7799
3.16872e+07,-33.7082
3.17306e+07,-34.0897
3.17739e+07,-34.9384
3.18173e+07,-33.9977
3.18606e+07,-35.09
3.1904e+07,-33.716
3.19473e+07,-33.1647
3.19907e+07,-32.893
3.2034e+07,-34.7366
3.20774e+07,-31.1486
3.21207e+07,-31.9228
3.21641e+07,-30.4247
3.22074e+07,-31.2244
3.22508e+07,-31.8412
3.22941e+07,-29.1039
3.23374e+07,-30.7536
3.23808e+07,-32.389
3.24241e+07,-32.9599
3.24675e+07,-34.2395
3.25108e+07,-35.433
3.25542e+07,-35.5308
3.25975e+07,-37.1386
3.26409e+07,-36.5632
3.26842e+07,-35.8416
3.27276e+07,-33.9459
3.27709e+07,-34.4006
3.28143e+07,-34.5451
3.28576e+07,-35.684
3.2901e+07,-34.8357
3.29443e+07,-32.6432
3.29877e+07,-33.86
3.3031e+07,-32.5771
3.30744e+07,-34.0749
3.31177e+07,-36.1428
3.31611e+07,-34.6437
3.32044e+07,-35.4329
3.32477e+07,-36.6347
3.32911e+07,-35.5138
3.33344e+07,-35.5893
3.33778e+07,-36.5092
3.34211e+07,-35.5553
3.34645e+07,-34.6978
3.35078e+07,-36.5323
3.35512e+07,-35.4174
3.35945e+07,-34.919
3.36379e+07,-34.9561
3.36812e+07,-36.177
3.37246e+07,-34.7965
3.37679e+07,-32.9791
3.38113e+07,-34.5889
3.38546e+07,-33.8746
3.3898e+07,-35.214
3.39413e+07,-35.3749
3.39847e+07,-32.839
3.4028e+07,-35.5471
3.40714e+07,-36.5871
3.41147e+07,-36.3099
3.41581e+07,-35.7034
3.42014e+07,-37.1993
3.42447e+07,-37.6072
3.42881e+07,-37.3321
3.43314e+07,-35.9897
3.43748e+07,-34.9931
3.44181e+07,-35.9344
3.44615e+07,-34.5812
3.45048e+07,-33.2965
3.45482e+07,-33.2302
3.45915e+07,-33.4351
3.46349e+07,-33.0171
3.46782e+07,-33.0673
3.47216e+07,-33.4297
3.47649e+07,-34.1765
3.48083e+07,-35.6248
3.48516e+07,-36.3167
3.4895e+07,-35.4214
3.49383e+07,-35.599
3.49817e+07,-36.0342
3.5025e+07,-37.5835
3.50684e+07,-36.836
3.51117e+07,-36.1613
3.51551e+07,-35.3773
3.51984e+07,-35.3936
3.52417e+07,-36.1699
3.52851e+07,-37.4067
3.53284e+07,-36.4006
3.53718e+07,-34.3047
3.54151e+07,-33.9742
3.54585e+07,-33.8678
3.55018e+07,-33.0758
3.55452e+07,-35.5256
3.55885e+07,-36.3351
3.56319e+07,-37.1266
3.56752e+07,-35.0186
3.57186e+07,-36.7854
3.57619e+07,-36.1458
3.58053e+07,-36.1097
3.58486e+07,-36.6719
3.5892e+07,-36.5861
3.59353e+07,-35.2969
3.59787e+07,-34.7721
3.6022e+07,-35.5745
3.60654e+07,-35.1088
3.61087e+07,-34.5723
3.61521e+07,-35.9576
3.61954e+07,-34.1542
3.62387e+07,-35.7721
3.62821e+07,-36.6515
3.63254e+07,-36.3674
3.63688e+07,-35.5063
3.64121e+07,-36.3949
3.64555e+07,-36.6462
3.64988e+07,-37.0912
3.65422e+07,-34.6124
3.65855e+07,-36.9047
3.66289e+07,-37.7908
3.66722e+07,-37.9749
3.67156e+07,-35.7792
3.67589e+07,-34.8237
3.68023e+07,-34.9129
3.68456e+07,-35.1023
3.6889e+07,-35.8154
3.69323e+07,-34.666
3.69757e+07,-35.16
3.7019e+07,-36.5189
3.70624e+07,-36.9574
3.71057e+07,-35.8234
3.7149e+07,-37.2028
3.71924e+07,-36.3647
3.72357e+07,-36.9519
3.72791e+07,-38.7
3.73224e+07,-37.2969
3.73658e+07,-36.9466
3.74091e+07,-38.3968
3.74525e+07,-37.1058
3.74958e+07,-37.023
3.75392e+07,-35.5047
3.75825e+07,-35.7657
3.76259e+07,-36.3702
3.76692e+07,-37.1606
3.77126e+07,-36.4746
3.77559e+07,-36.0211
3.77993e+07,-36.1665
3.78426e+07,-34.1311
3.7886e+07,-34.4197
3.79293e+07,-35.137
3.79727e+07,-36.6677
3.8016e+07,-37.7107
3.80594e+07,-37.0213
3.81027e+07,-36.6601
3.8146e+07,-36.917
3.81894e+07,-37.7832
3.82327e+07,-37.5417
3.82761e+07,-37.4521
3.83194e+07,-36.3358
3.83628e+07,-35.9331
3.84061e+07,-35.8759
3.84495e+07,-37.0675
3.84928e+07,-36.8571
3.85362e+07,-35.0871
3.85795e+07,-36.7065
3.86229e+07,-35.3809
3.86662e+07,-36.1187
3.87096e+07,-37.604
3.87529e+07,-36.7373
3.87963e+07,-38.3954
3.88396e+07,-37.6383
3.8883e+07,-37.4476
3.89263e+07,-37.424
3.89697e+07,-36.2741
3.9013e+07,-37.962
3.90564e+07,-35.9617
3.90997e+07,-35.0575
3.9143e+07,-35.8214
3.91864e+07,-35.9063
3.92297e+07,-35.9744
3.92731e+07,-38.232
3.93164e+07,-38.2548
3.93598e+07,-37.27
3.94031e+07,-36.6179
3.94465e+07,-38.2228
3.94898e+07,-38.2974
3.95332e+07,-37.9715
3.95765e+07,-38.0076
3.96199e+07,-38.3086
3.96632e+07,-38.7198
3.97066e+07,-38.0857
3.97499e+07,-37.4948
3.97933e+07,-36.5645
3.98366e+07,-37.338
3.988e+07,-35.8735
3.99233e+07,-36.2849
3.99667e+07,-35.3499
4.001e+07,-36.7479
4.00534e+07,-36.6827
4.00967e+07,-37.4073
4.014e+07,-36.9949
4.01834e+07,-36.1162
4.02267e+07,-36.4761
4.02701e+07,-37.9971
4.03134e+07,-38.6333
4.03568e+07,-37.1903
4.04001e+07,-37.6307
4.04435e+07,-38.1201
4.04868e+07,-36.7536
4.05302e+07,-36.9763
4.05735e+07,-35.6599
4.06169e+07,-37.1287
4.06602e+07,-38.5189
4.07036e+07,-36.7529
4.07469e+07,-37.468
4.07903e+07,-33.2947
4.08336e+07,-37.4128
4.0877e+07,-36.3809
4.09203e+07,-37.6881
4.09637e+07,-37.4411
4.1007e+07,-36.6606
4.10504e+07,-37.6581
4.10937e+07,-37.2287
4.1137e+07,-37.1574
4.11804e+07,-38.3443
4.12237e+07,-36.7513
4.12671e+07,-36.4238
4.13104e+07,-37.8664
4.13538e+07,-37.139
4.13971e+07,-37.1972
4.14405e+07,-37.9795
4.14838e+07,-36.3605
4.15272e+07,-36.148
4.15705e+07,-35.8269
4.16139e+07,-37.6994
4.16572e+07,-37.4599
4.17006e+07,-37.9731
4.17439e+07,-36.8445
4.17873e+07,-37.3267
4.18306e+07,-36.5298
4.1874e+07,-36.4289
4.19173e+07,-36.6841
4.19607e+07,-36.4007
4.2004e+07,-36.5269
4.20473e+07,-37.152
4.20907e+07,-36.7028
4.2134e+07,-36.2825
4.21774e+07,-35.994
4.22207e+07,-37.0884
4.22641e+07,-37.2507
4.23074e+07,-36.8013
4.23508e+07,-35.7379
4.23941e+07,-36.5753
4.24375e+07,-37.5392
4.24808e+07,-37.7726
4.25242e+07,-37.34
4.25675e+07,-37.5044
4.26109e+07,-36.3755
4.26542e+07,-38.0991
4.26976e+07,-37.4488
4.27409e+07,-36.9397
4.27843e+07,-36.4284
4.28276e+07,-38.3828
4.2871e+07,-37.0312
4.29143e+07,-36.814
4.29577e+07,-36.1549
4.3001e+07,-36.8797
4.30443e+07,-37.6225
4.30877e+07,-36.259
4.3131e+07,-36.7092
4.31744e+07,-35.7698
4.32177e+07,-36.4387
4.32611e+07,-35.5921
4.33044e+07,-38.0548
4.33478e+07,-37.5762
4.33911e+07,-37.2062
4.34345e+07,-37.7533
4.34778e+07,-38.088
4.35212e+07,-37.0919
4.35645e+07,-36.6646
4.36079e+07,-37.9922
4.36512e+07,-35.5887
4.36946e+07,-36.3144
4.37379e+07,-35.9869
4.37813e+07,-37.1491
4.38246e+07,-36.8944
4.3868e+07,-36.6159
4.39113e+07,-37.7003
4.39547e+07,-37.8912
4.3998e+07,-35.4971
4.40413e+07,-37.0226
4.40847e+07,-36.6582
4.4128e+07,-35.0796
4.41714e+07,-37.0999
4.42147e+07,-36.5412
4.42581e+07,-37.0569
4.43014e+07,-37.6964
4.43448e+07,-37.5944
4.43881e+07,-37.2133
4.44315e+07,-38.6656
4.44748e+07,-37.5487
4.45182e+07,-37.4091
4.45615e+07,-36.5425
4.46049e+07,-37.2999
4.46482e+07,-35.4533
4.46916e+07,-35.6003
4.47349e+07,-36.1561
4.47783e+07,-36.8326
4.48216e+07,-37.3977
4.4865e+07,-36.8592
4.49083e+07,-37.8635
4.49517e+07,-37.0397
4.4995e+07,-38.5084
4.50383e+07,-37.2548
4.50817e+07,-37.2675
4.5125e+07,-36.4327
4.51684e+07,-37.7941
4.52117e+07,-38.8523
4.52551e+07,-37.753
4.52984e+07,-37.1014
4.53418e+07,-35.3455
4.53851e+07,-36.547
4.54285e+07,-38.3368
4.54718e+07,-38.5783
4.55152e+07,-37.1894
4.55585e+07,-37.174
4.56019e+07,-36.7764
4.56452e+07,-37.2247
4.56886e+07,-37.5476
4.57319e+07,-36.2416
4.57753e+07,-37.5367
4.58186e+07,-37.6325
4.5862e+07,-37.9852
4.59053e+07,-37.9767
4.59486e+07,-37.8273
4.5992e+07,-38.9055
4.60353e+07,-38.2712
4.60787e+07,-37.2644
4.6122e+07,-37.6021
4.61654e+07,-36.5163
4.62087e+07,-38.4015
4.62521e+07,-37.9478
4.62954e+07,-37.0933
4.63388e+07,-38.1956
4.63821e+07,-38.5397
4.64255e+07,-37.3123
4.64688e+07,-38.7808
4.65122e+07,-38.474
4.65555e+07,-38.3945
4.65989e+07,-37.2422
4.66422e+07,-37.5023
4.66856e+07,-38.2634
4.67289e+07,-37.7947
4.67723e+07,-38.1287
4.68156e+07,-38.0946
4.6859e+07,-37.6105
4.69023e+07,-35.7345
4.69456e+07,-36.5115
4.6989e+07,-38.018
4.70323e+07,-38.5764
4.70757e+07,-38.3055
4.7119e+07,-37.008
4.71624e+07,-36.5794
4.72057e+07,-36.7544
4.72491e+07,-37.5933
4.72924e+07,-38.2875
4.73358e+07,-38.6024
4.73791e+07,-37.6464
4.74225e+07,-38.1182
4.74658e+07,-38.0249
4.75092e+07,-35.3511
4.75525e+07,-38.0753
4.75959e+07,-37.531
4.76392e+07,-37.0639
4.76826e+07,-38.7251
4.77259e+07,-37.2259
4.77693e+07,-36.6252
4.78126e+07,-38.2168
4.7856e+07,-37.9957
4.78993e+07,-37.9343
4.79426e+07,-36.9979
4.7986e+07,-37.3203
4.80293e+07,-37.945
4.80727e+07,-36.8836
4.8116e+07,-35.3492
4.81594e+07,-38.279
4.82027e+07,-38.1016
4.82461e+07,-38.6056
4.82894e+07,-36.2771
4.83328e+07,-37.6462
4.83761e+07,-35.9569
4.84195e+07,-37.7486
4.84628e+07,-37.7294
4.85062e+07,-36.4105
4.85495e+07,-36.1081
4.85929e+07,-37.7562
4.86362e+07,-39.0128
4.86796e+07,-39.0537
4.87229e+07,-37.0154
4.87663e+07,-36.9332
4.88096e+07,-38.4757
4.8853e+07,-38.2567
4.88963e+07,-37.8126
4.89396e+07,-35.9618
4.8983e+07,-37.7332
4.90263e+07,-37.6682
4.90697e+07,-36.8657
4.9113e+07,-37.3843
4.91564e+07,-37.1704
4.91997e+07,-36.6638
4.92431e+07,-37.4783
4.92864e+07,-37.094
4.93298e+07,-36.1508
4.93731e+07,-34.6633
4.94165e+07,-37.4804
4.94598e+07,-37.6992
4.95032e+07,-36.4471
4.95465e+07,-37.7017
4.95899e+07,-37.0629
4.96332e+07,-37.7584
4.96766e+07,-37.03
4.97199e+07,-37.0248
4.97633e+07,-37.6524
4.98066e+07,-37.5401
4.98499e+07,-37.047
4.98933e+07,-37.4526
4.99366e+07,-37.6842
4.998e+07,-37.2651
5.00233e+07,-37.6248
5.00667e+07,-37.9332
5.011e+07,-36.0496
5.01534e+07,-36.1848
5.01967e+07,-36.5347
5.02401e+07,-36.5229
5.02834e+07,-37.7705
5.03268e+07,-36.4334
5.03701e+07,-37.531
5.04135e+07,-37.4359
5.04568e+07,-35.526
5.05002e+07,-36.7353
5.05435e+07,-35.9312
5.05869e+07,-35.1709
5.06302e+07,-36.6916
5.06736e+07,-35.4169
5.07169e+07,-35.4334
5.07603e+07,-36.5623
5.08036e+07,-36.3907
5.08469e+07,-37.1158
5.08903e+07,-32.8277
5.09336e+07,-35.0579
5.0977e+07,-36.0192
5.10203e+07,-36.3997
5.10637e+07,-37.1891
5.1107e+07,-38.0717
5.11504e+07,-36.7053
5.11937e+07,-36.3206
5.12371e+07,-36.3807
5.12804e+07,-36.2538
5.13238e+07,-36.208
5.13671e+07,-35.6455
5.14105e+07,-37.1708
5.14538e+07,-36.8975
5.14972e+07,-36.6638
5.15405e+07,-36.0072
5.15839e+07,-35.8899
5.16272e+07,-36.2509
5.16706e+07,-35.9338
5.17139e+07,-35.1027
5.17573e+07,-35.9669
5.18006e+07,-36.205
5.18439e+07,-36.934
5.18873e+07,-36.2551
5.19306e+07,-37.875
5.1974e+07,-35.9489
5.20173e+07,-36.6391
5.20607e+07,-36.4425
5.2104e+07,-36.1523
5.21474e+07,-35.9067
5.21907e+07,-35.2273
5.22341e+07,-35.5338
5.22774e+07,-36.1611
5.23208e+07,-34.8176
5.23641e+07,-35.7169
5.24075e+07,-35.154
5.24508e+07,-35.1559
5.24942e+07,-35.3705
5.25375e+07,-32.4564
5.25809e+07,-34.5194
5.26242e+07,-35.5565
5.26676e+07,-37.0726
5.27109e+07,-36.3808
5.27543e+07,-35.4868
5.27976e+07,-37.1763
5.28409e+07,-35.6454
5.28843e+07,-36.4929
5.29276e+07,-34.211
5.2971e+07,-37.2734
5.30143e+07,-36.6832
5.30577e+07,-35.759
5.3101e+07,-35.2626
5.31444e+07,-35.2769
5.31877e+07,-36.5657
5.32311e+07,-36.1755
5.32744e+07,-35.1527
5.33178e+07,-34.3106
5.33611e+07,-33.6104
5.34045e+07,-35.4168
5.34478e+07,-37.3789
5.34912e+07,-37.3632
5.35345e+07,-36.9191
5.35779e+07,-37.0712
5.36212e+07,-36.2525
5.36646e+07,-34.6083
5.37079e+07,-35.4268
5.37513e+07,-36.7789
5.37946e+07,-34.792
5.38379e+07,-34.9819
5.38813e+07,-35.1598
5.39246e+07,-34.4705
5.3968e+07,-32.9757
5.40113e+07,-34.3132
5.40547e+07,-34.8421
5.4098e+07,-33.7851
5.41414e+07,-35.3556
5.41847e+07,-35.4156
5.42281e+07,-37.7372
5.42714e+07,-35.9964
5.43148e+07,-37.2276
5.43581e+07,-36.8709
5.44015e+07,-37.4114
5.44448e+07,-35.1569
5.44882e+07,-35.0924
5.45315e+07,-36.0249
5.45749e+07,-35.438
5.46182e+07,-35.5407
5.46616e+07,-35.9116
5.47049e+07,-34.8861
5.47482e+07,-35.585
5.47916e+07,-35.5447
5.48349e+07,-35.4941
5.48783e+07,-36.5964
5.49216e+07,-35.9289
5.4965e+07,-35.0557
5.50083e+07,-35.5592
5.50517e+07,-35.8561
5.5095e+07,-34.1248
5.51384e+07,-34.2987
5.51817e+07,-34.2986
5.52251e+07,-34.9659
5.52684e+07,-34.6077
5.53118e+07,-33.7351
5.53551e+07,-33.9609
5.53985e+07,-35.567
5.54418e+07,-35.9524
5.54852e+07,-33.0856
5.55285e+07,-32.6162
5.55719e+07,-31.5409
5.56152e+07,-33.06
5.56586e+07,-35.224
5.57019e+07,-36.5358
5.57452e+07,-35.7766
5.57886e+07,-36.6548
5.58319e+07,-36.2766
5.58753e+07,-37.005
5.59186e+07,-36.9999
5.5962e+07,-36.0675
5.60053e+07,-35.0741
5.60487e+07,-31.8729
5.6092e+07,-30.179
5.61354e+07,-32.8166
5.61787e+07,-32.291
5.62221e+07,-34.3595
5.62654e+07,-31.708
5.63088e+07,-29.177
5.63521e+07,-29.7964
5.63955e+07,-30.4398
5.64388e+07,-35.1579
5.64822e+07,-36.1117
5.65255e+07,-34.4219
5.65689e+07,-34.9836
5.66122e+07,-34.7974
5.66556e+07,-34.1818
5.66989e+07,-35.4723
5.67422e+07,-35.0052
5.67856e+07,-33.375
5.68289e+07,-32.4469
5.68723e+07,-34.0702
5.69156e+07,-33.5695
5.6959e+07,-33.6574
5.70023e+07,-33.2846
5.70457e+07,-29.2974
5.7089e+07,-27.7176
5.71324e+07,-28.839
5.71757e+07,-28.7235
5.72191e+07,-30.9583
5.72624e+07,-33.7506
5.73058e+07,-32.6402
5.73491e+07,-32.1619
5.73925e+07,-31.3936
5.74358e+07,-34.3423
5.74792e+07,-36.4101
5.75225e+07,-36.4334
5.75659e+07,-33.0801
5.76092e+07,-32.8043
5.76526e+07,-31.8213
5.76959e+07,-32.455
5.77392e+07,-31.188
5.77826e+07,-32.2861
5.78259e+07,-33.1448
5.78693e+07,-29.137
5.79126e+07,-29.6383
5.7956e+07,-28.9805
5.79993e+07,-28.1434
5.80427e+07,-28.9802
5.8086e+07,-32.8679
5.81294e+07,-32.2157
5.81727e+07,-31.3587
5.82161e+07,-32.1423
5.82594e+07,-34.1596
5.83028e+07,-33.6843
5.83461e+07,-33.0334
5.83895e+07,-32.8655
5.84328e+07,-33.5535
5.84762e+07,-33.6328
5.85195e+07,-33.0694
5.85629e+07,-32.6746
5.86062e+07,-33.3849
5.86495e+07,-31.96
5.86929e+07,-33.4841
5.87362e+07,-32.4669
5.87796e+07,-34.0471
5.88229e+07,-32.3517
5.88663e+07,-33.224
5.89096e+07,-33.6894
5.8953e+07,-33.4518
5.89963e+07,-32.1701
5.90397e+07,-33.9034
5.9083e+07,-33.55
5.91264e+07,-31.5061
5.91697e+07,-33.6257
5.92131e+07,-31.8141
5.92564e+07,-30.5901
5.92998e+07,-31.9961
5.93431e+07,-30.41
5.93865e+07,-31.0803
5.94298e+07,-28.9723
5.94732e+07,-28.9534
5.95165e+07,-28.9068
5.95599e+07,-27.4178
5.96032e+07,-28.6361
5.96465e+07,-32.734
5.96899e+07,-34.7931
5.97332e+07,-33.5448
5.97766e+07,-34.0354
5.98199e+07,-33.6154
5.98633e+07,-34.5742
5.99066e+07,-33.7466
5.995e+07,-32.7684
5.99933e+07,-32.4767
6.00367e+07,-33.1098
6.008e+07,-32.8701
6.01234e+07,-31.4596
6.01667e+07,-31.9838
6.02101e+07,-33.0615
6.02534e+07,-33.832
6.02968e+07,-32.5865
6.03401e+07,-30.6422
6.03835e+07,-30.4552
6.04268e+07,-32.0776
6.04702e+07,-33.7107
6.05135e+07,-34.6713
6.05569e+07,-32.6765
6.06002e+07,-33.4007
6.06435e+07,-34.5663
6.06869e+07,-33.5086
6.07302e+07,-31.8831
6.07736e+07,-31.5762
6.08169e+07,-32.4521
6.08603e+07,-31.2267
6.09036e+07,-32.3254
6.0947e+07,-31.6686
6.09903e+07,-31.655
6.10337e+07,-31.4954
6.1077e+07,-32.6205
6.11204e+07,-33.459
6.11637e+07,-31.4765
6.12071e+07,-34.1028
6.12504e+07,-34.4315
6.12938e+07,-34.9689
6.13371e+07,-34.2434
6.13805e+07,-34.3367
6.14238e+07,-32.099
6.14672e+07,-32.0648
6.15105e+07,-33.8703
6.15539e+07,-32.14
6.15972e+07,-31.4885
6.16405e+07,-29.4256
6.16839e+07,-28.6733
6.17272e+07,-31.0686
6.17706e+07,-29.7449
6.18139e+07,-32.9323
6.18573e+07,-30.4935
6.19006e+07,-33.2838
6.1944e+07,-34.0525
6.19873e+07,-33.2217
6.20307e+07,-32.6314
6.2074e+07,-34.4254
6.21174e+07,-33.5566
6.21607e+07,-33.6888
6.22041e+07,-33.0067
6.22474e+07,-32.4363
6.22908e+07,-31.9274
6.23341e+07,-28.8478
6.23775e+07,-30.2482
6.24208e+07,-29.3733
6.24642e+07,-28.9163
6.25075e+07,-29.5698
6.25509e+07,-28.3774
6.25942e+07,-30.718
6.26375e+07,-25.8045
6.26809e+07,-24.1895
6.27242e+07,-23.342
6.27676e+07,-23.4149
6.28109e+07,-24.1303
6.28543e+07,-31.937
6.28976e+07,-31.8382
6.2941e+07,-31.1414
6.29843e+07,-31.2426
6.30277e+07,-31.9687
6.3071e+07,-31.7936
6.31144e+07,-30.5351
6.31577e+07,-30.6789
6.32011e+07,-29.1523
6.32444e+07,-29.3253
6.32878e+07,-28.7323
6.33311e+07,-28.4863
6.33745e+07,-30.3205
6.34178e+07,-29.1608
6.34612e+07,-29.0167
6.35045e+07,-28.9321
6.35478e+07,-27.0857
6.35912e+07,-27.8945
6.36345e+07,-28.8874
6.36779e+07,-33.0295
6.37212e+07,-32.601
6.37646e+07,-29.5993
6.38079e+07,-32.1351
6.38513e+07,-29.8913
6.38946e+07,-30.5603
6.3938e+07,-30.0448
6.39813e+07,-29.2871
6.40247e+07,-29.1045
6.4068e+07,-27.5913
6.41114e+07,-28.7784
6.41547e+07,-29.0358
6.41981e+07,-29.6689
6.42414e+07,-27.7327
6.42848e+07,-26.5893
6.43281e+07,-27.3828
6.43715e+07,-28.0894
6.44148e+07,-28.3296
6.44582e+07,-31.1754
6.45015e+07,-33.239
6.45448e+07,-33.0731
6.45882e+07,-31.5027
6.46315e+07,-30.2603
6.46749e+07,-30.0068
6.47182e+07,-29.4536
6.47616e+07,-28.7417
6.48049e+07,-28.5985
6.48483e+07,-27.3574
6.48916e+07,-27.9472
6.4935e+07,-27.5163
6.49783e+07,-27.7781
6.50217e+07,-27.785
6.5065e+07,-28.9564
6.51084e+07,-30.4113
6.51517e+07,-28.7358
6.51951e+07,-32.5457
6.52384e+07,-33.3943
6.52818e+07,-32.7919
6.53251e+07,-32.7241
6.53685e+07,-32.3128
6.54118e+07,-29.7075
6.54552e+07,-30.36
6.54985e+07,-29.971
6.55418e+07,-28.9492
6.55852e+07,-28.6316
6.56285e+07,-27.5093
6.56719e+07,-29.2556
6.57152e+07,-30.7165
6.57586e+07,-29.0895
6.58019e+07,-28.5246
6.58453e+07,-30.8533
6.58886e+07,-30.2395
6.5932e+07,-30.9562
6.59753e+07,-30.0368
6.60187e+07,-30.9472
6.6062e+07,-32.5028
6.61054e+07,-32.5942
6.61487e+07,-32.3164
6.61921e+07,-28.6548
6.62354e+07,-27.4916
6.62788e+07,-26.4943
6.63221e+07,-23.0527
6.63655e+07,-27.6709
6.64088e+07,-28.2532
6.64522e+07,-28.2293
6.64955e+07,-28.0333
6.65388e+07,-26.6095
6.65822e+07,-28.4462
6.66255e+07,-25.9373
6.66689e+07,-26.7859
6.67122e+07,-26.775
6.67556e+07,-25.0979
6.67989e+07,-27.2249
6.68423e+07,-26.9628
6.68856e+07,-31.6181
6.6929e+07,-30.7777
6.69723e+07,-29.1579
6.70157e+07,-29.5316
6.7059e+07,-26.9914
6.71024e+07,-26.8367
6.71457e+07,-26.2311
6.71891e+07,-27.2409
6.72324e+07,-26.2483
6.72758e+07,-26.1729
6.73191e+07,-27.4092
6.73625e+07,-27.8253
6.74058e+07,-25.859
6.74491e+07,-25.2307
6.74925e+07,-24.0057
6.75358e+07,-22.2189
6.75792e+07,-23.262
6.76225e+07,-23.0848
6.76659e+07,-30.904
6.77092e+07,-31.8579
6.77526e+07,-29.1071
6.77959e+07,-28.0154
6.78393e+07,-27.5892
6.78826e+07,-26.9496
6.7926e+07,-25.2806
6.79693e+07,-25.1642
6.80127e+07,-26.6319
6.8056e+07,-24.4845
6.80994e+07,-25.0395
6.81427e+07,-25.4707
6.81861e+07,-26.6771
6.82294e+07,-25.944
6.82728e+07,-23.694
6.83161e+07,-22.6364
6.83595e+07,-22.2744
6.84028e+07,-22.5014
6.84461e+07,-24.1629
6.84895e+07,-32.481
6.85328e+07,-32.3273
6.85762e+07,-30.1006
6.86195e+07,-28.3529
6.86629e+07,-26.7648
6.87062e+07,-25.4784
6.87496e+07,-26.7192
6.87929e+07,-26.842
6.88363e+07,-27.1309
6.88796e+07,-23.8625
6.8923e+07,-24.6323
6.89663e+07,-27.1032
6.90097e+07,-26.5233
6.9053e+07,-26.6016
6.90964e+07,-29.0359
6.91397e+07,-26.7066
6.91831e+07,-27.7828
6.92264e+07,-30.2878
6.92698e+07,-29.866
6.93131e+07,-31.7062
6.93565e+07,-30.0059
6.93998e+07,-24.8803
6.94431e+07,-22.2282
6.94865e+07,-22.0199
6.95298e+07,-22.0238
6.95732e+07,-15.9387
6.96165e+07,-17.3868
6.96599e+07,-18.9014
6.97032e+07,-26.2072
6.97466e+07,-27.5558
6.97899e+07,-28.7615
6.98333e+07,-29.5396
6.98766e+07,-28.9419
6.992e+07,-27.5241
6.99633e+07,-27.7157
7.00067e+07,-28.3936
7.005e+07,-30.8242
7.00934e+07,-32.3155
7.01367e+07,-31.4234
7.01801e+07,-31.4127
7.02234e+07,-27.7929
7.02668e+07,-26.656
7.03101e+07,-26.7633
7.03535e+07,-25.0566
7.03968e+07,-25.2172
7.04401e+07,-26.8304
7.04835e+07,-26.4006
7.05268e+07,-26.8809
7.05702e+07,-26.9894
7.06135e+07,-24.7842
7.06569e+07,-24.6359
7.07002e+07,-24.9047
7.07436e+07,-26.1171
7.07869e+07,-24.3431
7.08303e+07,-27.2445
7.08736e+07,-24.8973
7.0917e+07,-29.39
7.09603e+07,-23.4797
7.10037e+07,-22.2835
7.1047e+07,-18.7799
7.10904e+07,-18.555
7.11337e+07,-19.7002
7.11771e+07,-21.4764
7.12204e+07,-18.8248
7.12638e+07,-26.1049
7.13071e+07,-27.8413
7.13505e+07,-26.2243
7.13938e+07,-28.3869
7.14371e+07,-27.6489
7.14805e+07,-29.7002
7.15238e+07,-30.7099
7.15672e+07,-29.6653
7.16105e+07,-31.9137
7.16539e+07,-30.7412
7.16972e+07,-31.1589
7.17406e+07,-29.8789
7.17839e+07,-17.4785
7.18273e+07,-16.0039
7.18706e+07,-15.8553
7.1914e+07,-16.2927
7.19573e+07,-16.3525
7.20007e+07,-16.7162
7.2044e+07,-17.0933
7.20874e+07,-25.8534
7.21307e+07,-23.6028
7.21741e+07,-27.5473
7.22174e+07,-27.2039
7.22608e+07,-27.3853
7.23041e+07,-29.3872
7.23474e+07,-29.431
7.23908e+07,-29.9493
7.24341e+07,-28.5087
7.24775e+07,-28.2581
7.25208e+07,-19.2506
7.25642e+07,-19.0517
7.26075e+07,-15.9126
7.26509e+07,-15.1414
7.26942e+07,-14.5955
7.27376e+07,-15.0635
7.27809e+07,-13.9031
7.28243e+07,-17.2323
7.28676e+07,-19.2201
7.2911e+07,-23.3926
7.29543e+07,-4.82506
7.29977e+07,-24.7003
7.3041e+07,-23.258
7.30844e+07,-26.1644
7.31277e+07,-27.0651
7.31711e+07,-30.754
7.32144e+07,-29.966
7.32578e+07,-28.817
7.33011e+07,-25.7931
7.33444e+07,-16.7541
7.33878e+07,-15.5012
7.34311e+07,-14.0392
7.34745e+07,-12.7895
7.35178e+07,-14.5748
7.35612e+07,-14.0821
7.36045e+07,-15.9455
7.36479e+07,-19.2302
7.36912e+07,-16.6133
7.37346e+07,-21.8392
7.37779e+07,-22.8485
7.38213e+07,-24.7395
7.38646e+07,-21.3192
7.3908e+07,-27.0301
7.39513e+07,-29.224
7.39947e+07,-27.1261
7.4038e+07,-24.2236
7.40814e+07,-23.701
7.41247e+07,-20.8513
7.41681e+07,-22.4507
7.42114e+07,-19.8233
7.42548e+07,-24.2299
7.42981e+07,-22.5331
7.43414e+07,-21.6158
7.43848e+07,-21.9393
7.44281e+07,-23.052
7.44715e+07,-22.3809
7.45148e+07,-24.2245
7.45582e+07,-25.9191
7.46015e+07,-25.7295
7.46449e+07,-26.5684
7.46882e+07,-27.4997
7.47316e+07,-29.7967
7.47749e+07,-30.8418
7.48183e+07,-25.592
7.48616e+07,-23.623
7.4905e+07,-23.6079
7.49483e+07,-21.3705
7.49917e+07,-18.2347
7.5035e+07,-18.0789
7.50784e+07,-17.1068
7.51217e+07,-17.6696
7.51651e+07,-17.1815
7.52084e+07,-18.9727
7.52518e+07,-18.4817
7.52951e+07,-22.9933
7.53384e+07,-23.5616
7.53818e+07,-24.8324
7.54251e+07,-25.5937
7.54685e+07,-27.5051
7.55118e+07,-30.1026
7.55552e+07,-31.2407
7.55985e+07,-24.5425
7.56419e+07,-23.6473
7.56852e+07,-21.9095
7.57286e+07,-22.273
7.57719e+07,-21.0166
7.58153e+07,-21.0089
7.58586e+07,-19.0332
7.5902e+07,-19.1328
7.59453e+07,-18.4976
7.59887e+07,-21.2069
7.6032e+07,-23.0163
7.60754e+07,-25.319
7.61187e+07,-26.0071
7.61621e+07,-26.8963
7.62054e+07,-28.1581
7.62487e+07,-30.6371
7.62921e+07,-29.1755
7.63354e+07,-29.4937
7.63788e+07,-27.0367
7.64221e+07,-21.8646
7.64655e+07,-20.0111
7.65088e+07,-19.4933
7.65522e+07,-18.6314
7.65955e+07,-20.1401
7.66389e+07,-21.3869
7.66822e+07,-20.3855
7.67256e+07,-21.1584
7.67689e+07,-21.3707
7.68123e+07,-21.3635
7.68556e+07,-24.8159
7.6899e+07,-27.3872
7.69423e+07,-26.3299
7.69857e+07,-26.7878
7.7029e+07,-26.2622
7.70724e+07,-28.3263
7.71157e+07,-29.3038
7.71591e+07,-25.6071
7.72024e+07,-18.6865
7.72457e+07,-17.7096
7.72891e+07,-16.9433
7.73324e+07,-16.2899
7.73758e+07,-17.9615
7.74191e+07,-20.4749
7.74625e+07,-19.6012
7.75058e+07,-16.4672
7.75492e+07,-16.3729
7.75925e+07,-18.27
7.76359e+07,-20.3063
7.76792e+07,-26.9654
7.77226e+07,-23.1779
7.77659e+07,-25.8464
7.78093e+07,-25.4995
7.78526e+07,-24.3214
7.7896e+07,-24.7667
7.79393e+07,-23.6349
7.79827e+07,-21.1756
7.8026e+07,-16.4056
7.80694e+07,-16.4973
7.81127e+07,-14.2531
7.81561e+07,-15.1435
7.81994e+07,-9.10415
7.82427e+07,-8.88384
7.82861e+07,-9.42923
7.83294e+07,-10.1402
7.83728e+07,-9.77572
7.84161e+07,-9.42581
7.84595e+07,-8.39225
7.85028e+07,-20.2535
7.85462e+07,-20.237
7.85895e+07,-22.1599
7.86329e+07,-19.5458
7.86762e+07,-21.5614
7.87196e+07,-23.6999
7.87629e+07,-24.8217
7.88063e+07,-20.5535
7.88496e+07,-18.6556
7.8893e+07,-17.7104
7.89363e+07,-17.2334
7.89797e+07,-19.1666
7.9023e+07,-17.0901
7.90664e+07,-15.5904
7.91097e+07,-15.0144
7.91531e+07,-14.8106
7.91964e+07,-15.7914
7.92397e+07,-18.8881
7.92831e+07,-20.7097
7.93264e+07,-19.9562
7.93698e+07,-24.4425
7.94131e+07,-22.9212
7.94565e+07,-23.3616
7.94998e+07,-24.1317
7.95432e+07,-24.7522
7.95865e+07,-23.7307
7.96299e+07,-18.6212
7.96732e+07,-16.9726
7.97166e+07,-15.7488
7.97599e+07,-14.9295
7.98033e+07,-13.9136
7.98466e+07,-14.3601
7.989e+07,-14.0621
7.99333e+07,-14.4021
7.99767e+07,-15.4708
8.002e+07,-16.2053
8.00634e+07,-24.0606
8.01067e+07,-23.6288
8.01501e+07,-24.5627
8.01934e+07,-25.7868
8.02367e+07,-26.9305
8.02801e+07,-29.8273
8.03234e+07,-27.436
8.03668e+07,-26.4561
8.04101e+07,-24.3089
8.04535e+07,-19.2123
8.04968e+07,-18.3567
8.05402e+07,-18.3869
8.05835e+07,-18.4529
8.06269e+07,-18.5718
8.06702e+07,-18.7685
8.07136e+07,-17.5768
8.07569e+07,-19.6389
8.08003e+07,-19.9953
8.08436e+07,-20.2137
8.0887e+07,-25.6203
8.09303e+07,-23.5378
8.09737e+07,-27.2404
8.1017e+07,-28.1445
8.10604e+07,-28.7015
8.11037e+07,-29.0241
8.1147e+07,-27.5678
8.11904e+07,-25.7068
8.12337e+07,-21.7018
8.12771e+07,-17.9609
8.13204e+07,-16.4713
8.13638e+07,-14.8521
8.14071e+07,-19.3544
8.14505e+07,-20.6631
8.14938e+07,-19.0657
8.15372e+07,-18.4134
8.15805e+07,-18.8232
8.16239e+07,-19.6792
8.16672e+07,-22.5023
8.17106e+07,-26.8626
8.17539e+07,-27.6421
8.17973e+07,-28.3968
8.18406e+07,-24.5459
8.1884e+07,-24.076
8.19273e+07,-25.9674
8.19707e+07,-26.2585
8.2014e+07,-21.1969
8.20574e+07,-19.9468
8.21007e+07,-18.3519
8.2144e+07,-17.5191
8.21874e+07,-18.4098
8.22307e+07,-17.1567
8.22741e+07,-14.749
8.23174e+07,-13.9504
8.23608e+07,-14.6711
8.24041e+07,-15.0237
8.24475e+07,-17.7896
8.24908e+07,-15.7175
8.25342e+07,-25.0388
8.25775e+07,-27.4338
8.26209e+07,-28.824
8.26642e+07,-26.7967
8.27076e+07,-26.6178
8.27509e+07,-26.3615
8.27943e+07,-23.7501
8.28376e+07,-13.1172
8.2881e+07,-14.2466
8.29243e+07,-13.4372
8.29677e+07,-13.5798
8.3011e+07,-12.7886
8.30544e+07,-10.6051
8.30977e+07,-10.6749
8.3141e+07,-9.38895
8.31844e+07,-10.245
8.32277e+07,-10.1708
8.32711e+07,-15.1878
8.33144e+07,-14.1505
8.33578e+07,-24.6425
8.34011e+07,-26.8767
8.34445e+07,-26.6754
8.34878e+07,-26.2557
8.35312e+07,-25.9806
8.35745e+07,-21.0318
8.36179e+07,-14.7151
8.36612e+07,-13.2273
8.37046e+07,-11.4868
8.37479e+07,-13.4178
8.37913e+07,-7.68689
8.38346e+07,-8.1567
8.3878e+07,-7.11918
8.39213e+07,-6.06605
8.39647e+07,-5.74227
8.4008e+07,-6.65161
8.40514e+07,-11.0327
8.40947e+07,-19.7303
8.4138e+07,-20.8336
8.41814e+07,-22.6099
8.42247e+07,-28.0604
8.42681e+07,-25.6831
8.43114e+07,-19.0988
8.43548e+07,-21.0614
8.43981e+07,-16.7317
8.44415e+07,-14.6289
8.44848e+07,-14.3253
8.45282e+07,-14.2379
8.45715e+07,-16.3162
8.46149e+07,-14.5644
8.46582e+07,-14.9522
8.47016e+07,-14.8752
8.47449e+07,-14.65
8.47883e+07,-16.003
8.48316e+07,-14.8904
8.4875e+07,-15.4241
8.49183e+07,-23.7947
8.49617e+07,-23.388
8.5005e+07,-26.8793
8.50483e+07,-28.3335
8.50917e+07,-27.7867
8.5135e+07,-26.7068
8.51784e+07,-22.6984
8.52217e+07,-18.9001
8.52651e+07,-17.2622
8.53084e+07,-15.434
8.53518e+07,-16.7266
8.53951e+07,-16.2528
8.54385e+07,-15.0445
8.54818e+07,-15.5608
8.55252e+07,-12.7333
8.55685e+07,-15.4369
8.56119e+07,-16.544
8.56552e+07,-25.4486
8.56986e+07,-21.193
8.57419e+07,-27.3781
8.57853e+07,-26.9616
8.58286e+07,-28.092
8.5872e+07,-27.5061
8.59153e+07,-26.4143
8.59587e+07,-26.0206
8.6002e+07,-24.0746
8.60453e+07,-18.7047
8.60887e+07,-15.0059
8.6132e+07,-16.4495
8.61754e+07,-18.4798
8.62187e+07,-19.1821
8.62621e+07,-22.8731
8.63054e+07,-22.4831
8.63488e+07,-22.093
8.63921e+07,-23.8303
8.64355e+07,-25.9328
8.64788e+07,-26.3933
8.65222e+07,-25.4295
8.65655e+07,-24.6292
8.66089e+07,-25.89
8.66522e+07,-26.9061
8.66956e+07,-26.615
8.67389e+07,-24.0822
8.67823e+07,-20.1675
8.68256e+07,-16.751
8.6869e+07,-14.0417
8.69123e+07,-13.5361
8.69557e+07,-14.3616
8.6999e+07,-13.3546
8.70423e+07,-17.2207
8.70857e+07,-20.3907
8.7129e+07,-22.1108
8.71724e+07,-22.5058
8.72157e+07,-22.761
8.72591e+07,-23.6666
8.73024e+07,-24.9085
8.73458e+07,-24.365
8.73891e+07,-25.2851
8.74325e+07,-24.9013
8.74758e+07,-24.5396
8.75192e+07,-20.9262
8.75625e+07,-17.3095
8.76059e+07,-13.7681
8.76492e+07,-10.9831
8.76926e+07,-10.7442
8.77359e+07,-7.79957
8.77793e+07,-9.04154
8.78226e+07,-12.5087
8.7866e+07,-14.0841
8.79093e+07,-20.1727
8.79527e+07,-22.0645
8.7996e+07,-23.0669
8.80393e+07,-24.5978
8.80827e+07,-24.3388
8.8126e+07,-23.6859
8.81694e+07,-24.445
8.82127e+07,-26.1601
8.82561e+07,-23.6513
8.82994e+07,-23.415
8.83428e+07,-20.5338
8.83861e+07,-22.7538
8.84295e+07,-1.62474
8.84728e+07,14.1974
8.85162e+07,14.7936
8.85595e+07,14.2306
8.86029e+07,-1.91712
8.86462e+07,-20.3651
8.86896e+07,-18.0998
8.87329e+07,-18.8535
8.87763e+07,-20.9425
8.88196e+07,-23.1446
8.8863e+07,-25.9606
8.89063e+07,-22.1468
8.89496e+07,-24.719
8.8993e+07,-25.68
8.90363e+07,-26.562
8.90797e+07,-25.1555
8.9123e+07,-20.7268
8.91664e+07,-22.2962
8.92097e+07,-12.0039
8.92531e+07,-9.50738
8.92964e+07,-8.7677
8.93398e+07,-7.81431
8.93831e+07,-9.46481
8.94265e+07,-13.4867
8.94698e+07,-17.1854
8.95132e+07,-16.5368
8.95565e+07,-14.2526
8.95999e+07,-16.5993
8.96432e+07,-24.8376
8.96866e+07,-24.4866
8.97299e+07,-23.7152
8.97733e+07,-24.967
8.98166e+07,-26.0691
8.986e+07,-27.1729
8.99033e+07,-23.9555
8.99466e+07,-20.2852
8.999e+07,-19.6508
9.00333e+07,-14.8696
9.00767e+07,-13.0109
9.012e+07,-10.2235
9.01634e+07,-11.3226
9.02067e+07,-17.2224
9.02501e+07,-19.6933
9.02934e+07,-23.7823
9.03368e+07,-22.9303
9.03801e+07,-26.1736
9.04235e+07,-25.7179
9.04668e+07,-25.492
9.05102e+07,-22.0636
9.05535e+07,-24.5949
9.05969e+07,-26.6438
9.06402e+07,-26.1496
9.06836e+07,-27.4892
9.07269e+07,-26.6957
9.07703e+07,-24.1602
9.08136e+07,-20.316
9.0857e+07,-17.3745
9.09003e+07,-16.7141
9.09436e+07,-15.8593
9.0987e+07,-18.9465
9.10303e+07,-20.9644
9.10737e+07,-22.5664
9.1117e+07,-23.1962
9.11604e+07,-22.7621
9.12037e+07,-25.7842
9.12471e+07,-27.5198
9.12904e+07,-27.5673
9.13338e+07,-21.1213
9.13771e+07,-22.0309
9.14205e+07,-20.4998
9.14638e+07,-4.20965
9.15072e+07,-2.91589
9.15505e+07,-2.89278
9.15939e+07,-5.83774
9.16372e+07,-19.5653
9.16806e+07,-17.0667
9.17239e+07,-14.6395
9.17673e+07,-16.8442
9.18106e+07,-17.8061
9.1854e+07,-18.6445
9.18973e+07,-23.973
9.19406e+07,-24.8579
9.1984e+07,-27.0199
9.20273e+07,-26.0313
9.20707e+07,-24.2091
9.2114e+07,-18.1818
9.21574e+07,-17.3999
9.22007e+07,-19.1516
9.22441e+07,-9.24802
9.22874e+07,-4.07585
9.23308e+07,-4.19533
9.23741e+07,-2.6457
9.24175e+07,-6.80928
9.24608e+07,-15.8175
9.25042e+07,-14.2301
9.25475e+07,-14.2063
9.25909e+07,-16.8277
9.26342e+07,-16.1946
9.26776e+07,-21.507
9.27209e+07,-25.5605
9.27643e+07,-26.9857
9.28076e+07,-26.9442
9.2851e+07,-26.7625
9.28943e+07,-25.8031
9.29376e+07,-11.7266
9.2981e+07,-12.1011
9.30243e+07,-6.88351
9.30677e+07,3.71571
9.3111e+07,3.9667
9.31544e+07,3.01081
9.31977e+07,2.1635
9.32411e+07,-13.5097
9.32844e+07,-11.5585
9.33278e+07,-10.9588
9.33711e+07,-12.7207
9.34145e+07,-14.9527
9.34578e+07,-19.7952
9.35012e+07,-21.314
9.35445e+07,-20.2924
9.35879e+07,-20.265
9.36312e+07,-26.4396
9.36746e+07,-27.2629
9.37179e+07,-15.8312
9.37613e+07,-14.9841
9.38046e+07,-14.7441
9.38479e+07,1.3717
9.38913e+07,3.42868
9.39346e+07,3.37995
9.3978e+07,1.36434
9.40213e+07,-6.42998
9.40647e+07,-10.6519
9.4108e+07,-10.0036
9.41514e+07,-12.6858
9.41947e+07,-14.2681
9.42381e+07,-17.8507
9.42814e+07,-21.1917
9.43248e+07,-17.7763
9.43681e+07,-24.5945
9.44115e+07,-26.3294
9.44548e+07,-26.3167
9.44982e+07,-25.1764
9.45415e+07,-18.6795
9.45849e+07,-19.4326
9.46282e+07,-1.54306
9.46716e+07,-0.879145
9.47149e+07,-1.00936
9.47583e+07,-2.51104
9.48016e+07,-2.37334
9.48449e+07,-17.4967
9.48883e+07,-16.6049
9.49316e+07,-15.2877
9.4975e+07,-18.1125
9.50183e+07,-19.5347
9.50617e+07,-23.2815
9.5105e+07,-13.6811
9.51484e+07,-13.6498
9.51917e+07,-23.9041
9.52351e+07,-25.8475
9.52784e+07,-24.6192
9.53218e+07,-24.1163
9.53651e+07,-22.8758
9.54085e+07,-21.6195
9.54518e+07,-7.00323
9.54952e+07,-7.88714
9.55385e+07,-7.98754
9.55819e+07,-11.2879
9.56252e+07,-20.4419
9.56686e+07,-16.7874
9.57119e+07,-16.3423
9.57553e+07,-15.9779
9.57986e+07,-19.3988
9.58419e+07,-22.4628
9.58853e+07,-26.0012
9.59286e+07,-26.7321
9.5972e+07,-26.4751
9.60153e+07,-20.3169
9.60587e+07,-19.7049
9.6102e+07,-19.3212
9.61454e+07,-17.3081
9.61887e+07,-16.5461
9.62321e+07,-15.0948
9.62754e+07,-12.5517
9.63188e+07,-9.44037
9.63621e+07,-7.04664
9.64055e+07,-10.118
9.64488e+07,-19.1222
9.64922e+07,-15.8868
9.65355e+07,-17.5843
9.65789e+07,-18.1382
9.66222e+07,-21.5048
9.66656e+07,-21.7675
9.67089e+07,-26.5662
9.67523e+07,-26.4218
9.67956e+07,-23.9209
9.68389e+07,-19.5303
9.68823e+07,-13.8734
9.69256e+07,-14.7357
9.6969e+07,-14.4734
9.70123e+07,-18.8558
9.70557e+07,-6.07913
9.7099e+07,-6.55541
9.71424e+07,-2.62243
9.71857e+07,-2.47943
9.72291e+07,-14.2323
9.72724e+07,-15.5644
9.73158e+07,-14.8931
9.73591e+07,-17.8436
9.74025e+07,-18.6967
9.74458e+07,-20.5469
9.74892e+07,-15.5646
9.75325e+07,-14.9935
9.75759e+07,-16.3771
9.76192e+07,-16.1743
9.76626e+07,-12.8204
9.77059e+07,-14.5145
9.77492e+07,-14.6579
9.77926e+07,-14.9709
9.78359e+07,-19.6276
9.78793e+07,-4.63498
9.79226e+07,-5.11882
9.7966e+07,-4.73594
9.80093e+07,-15.3988
9.80527e+07,-15.8203
9.8096e+07,-15.7793
9.81394e+07,-18.4461
9.81827e+07,-18.3971
9.82261e+07,-21.8956
9.82694e+07,-22.1327
9.83128e+07,-25.0998
9.83561e+07,-21.609
9.83995e+07,-11.8558
9.84428e+07,-11.4389
9.84862e+07,-12.0685
9.85295e+07,-10.4957
9.85729e+07,-10.1838
9.86162e+07,-13.72
9.86596e+07,-22.3671
9.87029e+07,0.397542
9.87462e+07,1.85857
9.87896e+07,0.0340014
9.88329e+07,-8.10331
9.88763e+07,-15.4097
9.89196e+07,-14.9108
9.8963e+07,-16.7433
9.90063e+07,-18.7999
9.90497e+07,-20.0458
9.9093e+07,-23.9015
9.91364e+07,-13.4964
9.91797e+07,-18.514
9.92231e+07,-16.8478
9.92664e+07,-16.0869
9.93098e+07,-14.7401
9.93531e+07,-14.3192
9.93965e+07,-14.9111
9.94398e+07,-18.3956
9.94832e+07,-18.1064
9.95265e+07,-14.3578
9.95699e+07,-15.4301
9.96132e+07,-22.2807
9.96566e+07,-19.4906
9.96999e+07,-17.2718
9.97432e+07,-17.2501
9.97866e+07,-17.3127
9.98299e+07,-18.9875
9.98733e+07,-22.6628
9.99166e+07,-23.6412
9.996e+07,-21.3608
1.00003e+08,-21.2766
1.00047e+08,-17.5309
1.0009e+08,-16.894
1.00133e+08,-16.9431
1.00177e+08,-17.5007
1.0022e+08,-18.2964
1.00263e+08,-9.63333
1.00307e+08,-11.7162
1.0035e+08,-10.1295
1.00393e+08,-7.82693
1.00437e+08,-21.7828
1.0048e+08,-20.8021
1.00524e+08,-18.9532
1.00567e+08,-18.4692
1.0061e+08,-20.6619
1.00654e+08,-21.4405
1.00697e+08,-23.9217
1.0074e+08,-24.6227
1.00784e+08,-24.9322
1.00827e+08,-24.5933
1.0087e+08,-21.3482
1.00914e+08,-19.5936
1.00957e+08,-18.5132
1.01e+08,-18.2692
1.01044e+08,-8.52686
1.01087e+08,-6.85802
1.0113e+08,-6.39923
1.01174e+08,-7.15828
1.01217e+08,-25.8904
1.0126e+08,-19.6111
1.01304e+08,-18.6173
1.01347e+08,-20.8995
1.0139e+08,-23.3807
1.01434e+08,-24.5039
1.01477e+08,-24.4522
1.01521e+08,-22.2465
1.01564e+08,-22.9513
1.01607e+08,-23.6577
1.01651e+08,-18.7232
1.01694e+08,-16.2801
1.01737e+08,-16.1553
1.01781e+08,-15.7637
1.01824e+08,-18.0459
1.01867e+08,-6.46896
1.01911e+08,-3.63782
1.01954e+08,-4.16848
1.01997e+08,-5.98094
1.02041e+08,-18.4029
1.02084e+08,-20.5938
1.02127e+08,-19.489
1.02171e+08,-21.8167
1.02214e+08,-22.6034
1.02257e+08,-25.6467
1.02301e+08,-26.9015
1.02344e+08,-23.7235
1.02387e+08,-22.8212
1.02431e+08,-19.815
1.02474e+08,-16.5372
1.02518e+08,-15.5522
1.02561e+08,-15.4257
1.02604e+08,-16.5472
1.02648e+08,-17.874
1.02691e+08,-13.897
1.02734e+08,-17.4109
1.02778e+08,-20.4045
1.02821e+08,-21.4818
1.02864e+08,-20.4857
1.02908e+08,-20.8283
1.02951e+08,-20.9472
1.02994e+08,-22.7819
1.03038e+08,-22.3552
1.03081e+08,-26.0511
1.03124e+08,-23.8521
1.03168e+08,-24.0621
1.03211e+08,-14.4829
1.03254e+08,-14.4058
1.03298e+08,-12.1767
1.03341e+08,-12.3747
1.03384e+08,-11.6669
1.03428e+08,-13.8107
1.03471e+08,-3.36697
1.03515e+08,-3.83358
1.03558e+08,-4.66126
1.03601e+08,-3.98178
1.03645e+08,-20.2013
1.03688e+08,-23.3647
1.03731e+08,-23.4543
1.03775e+08,-26.0025
1.03818e+08,-27.8331
1.03861e+08,-27.2656
1.03905e+08,-25.6668
1.03948e+08,-20.3116
1.03991e+08,-18.2441
1.04035e+08,-15.9934
1.04078e+08,-12.506
1.04121e+08,-11.3678
1.04165e+08,-13.5284
1.04208e+08,-14.4594
1.04251e+08,-3.96619
1.04295e+08,-4.34529
1.04338e+08,-5.24965
1.04381e+08,-5.5326
1.04425e+08,-12.4004
1.04468e+08,-17.2446
1.04512e+08,-17.7714
1.04555e+08,-24.6971
1.04598e+08,-26.0195
1.04642e+08,-27.2361
1.04685e+08,-27.0686
1.04728e+08,-22.9842
1.04772e+08,-25.886
1.04815e+08,-21.1158
1.04858e+08,-17.1945
1.04902e+08,-18.0978
1.04945e+08,-17.7433
1.04988e+08,-19.8849
1.05032e+08,-19.2049
1.05075e+08,-6.52365
1.05118e+08,-5.42128
1.05162e+08,-5.90893
1.05205e+08,-26.7386
1.05248e+08,-29.4387
1.05292e+08,-28.0227
1.05335e+08,-27.087
1.05378e+08,-29.2159
1.05422e+08,-30.0103
1.05465e+08,-27.1175
1.05509e+08,-27.0461
1.05552e+08,-25.0775
1.05595e+08,-25.1978
1.05639e+08,-21.502
1.05682e+08,-19.2375
1.05725e+08,-20.7091
1.05769e+08,-19.9097
1.05812e+08,-21.3113
1.05855e+08,-14.4245
1.05899e+08,-8.78374
1.05942e+08,-8.41736
1.05985e+08,-12.7982
1.06029e+08,-24.9744
1.06072e+08,-28.4612
1.06115e+08,-27.199
1.06159e+08,-27.7877
1.06202e+08,-29.0667
1.06245e+08,-14.3602
1.06289e+08,-13.3725
1.06332e+08,-13.587
1.06375e+08,-14.2489
1.06419e+08,-19.2991
1.06462e+08,-19.2003
1.06506e+08,-16.0926
1.06549e+08,-17.1051
1.06592e+08,-19.2646
1.06636e+08,-21.4465
1.06679e+08,-24.1941
1.06722e+08,-22.9107
1.06766e+08,-24.5498
1.06809e+08,-31.9355
1.06852e+08,-32.9906
1.06896e+08,-30.6333
1.06939e+08,-30.0527
1.06982e+08,-30.6281
1.07026e+08,-29.6565
1.07069e+08,-23.3594
1.07112e+08,-22.266
1.07156e+08,-24.8025
1.07199e+08,-24.2217
1.07242e+08,-19.5642
1.07286e+08,-17.1809
1.07329e+08,-16.7424
1.07372e+08,-15.6944
1.07416e+08,-19.6167
1.07459e+08,-4.67125
1.07503e+08,-7.08349
1.07546e+08,-8.30595
1.07589e+08,-8.77445
1.07633e+08,-25.2668
1.07676e+08,-26.1992
1.07719e+08,-25.5358
1.07763e+08,-28.3517
1.07806e+08,-27.3576
1.07849e+08,-24.1346
1.07893e+08,-19.2675
1.07936e+08,-21.0822
1.07979e+08,-20.7543
1.08023e+08,-19.7377
1.08066e+08,-17.8901
1.08109e+08,-14.8485
1.08153e+08,-17.1655
1.08196e+08,-18.1402
1.08239e+08,-20.6682
1.08283e+08,-21.7063
1.08326e+08,-28.9303
1.08369e+08,-31.2932
1.08413e+08,-31.4673
1.08456e+08,-30.8638
1.08499e+08,-29.3712
1.08543e+08,-30.0767
1.08586e+08,-22.7528
1.0863e+08,-19.7681
1.08673e+08,-18.9983
1.08716e+08,-18.3028
1.0876e+08,-19.2736
1.08803e+08,-21.9256
1.08846e+08,-17.7644
1.0889e+08,-14.9575
1.08933e+08,-16.2396
1.08976e+08,-16.005
1.0902e+08,-16.8746
1.09063e+08,-21.4638
1.09106e+08,-27.6209
1.0915e+08,-28.9782
1.09193e+08,-31.1848
1.09236e+08,-30.9866
1.0928e+08,-29.7147
1.09323e+08,-28.9485
1.09366e+08,-21.6004
1.0941e+08,-22.8546
1.09453e+08,-20.6986
1.09496e+08,-19.3611
1.0954e+08,-20.5254
1.09583e+08,-24.0767
1.09627e+08,-21.1489
1.0967e+08,-17.8164
1.09713e+08,-16.6831
1.09757e+08,-15.6923
1.098e+08,-17.4872
1.09843e+08,-20.8048
1.09887e+08,-22.6976
1.0993e+08,-28.4808
1.09973e+08,-30.9591
1.10017e+08,-32.2529
1.1006e+08,-31.9292
1.10103e+08,-31.2305
1.10147e+08,-26.8565
1.1019e+08,-26.1512
1.10233e+08,-24.7094
1.10277e+08,-24.2639
1.1032e+08,-23.5939
1.10363e+08,-24.5366
1.10407e+08,-22.8433
1.1045e+08,-19.6426
1.10493e+08,-18.8178
1.10537e+08,-18.9278
1.1058e+08,-19.8363
1.10624e+08,-20.9917
1.10667e+08,-25.9012
1.1071e+08,-29.0662
1.10754e+08,-30.3367
1.10797e+08,-29.6219
1.1084e+08,-29.1818
1.10884e+08,-28.3588
1.10927e+08,-27.4821
1.1097e+08,-26.2768
1.11014e+08,-27.6518
1.11057e+08,-26.5822
1.111e+08,-27.2187
1.11144e+08,-27.1923
1.11187e+08,-26.3029
1.1123e+08,-23.3145
1.11274e+08,-20.0897
1.11317e+08,-20.1922
1.1136e+08,-21.3366
1.11404e+08,-24.3652
1.11447e+08,-25.3886
1.1149e+08,-28.1362
1.11534e+08,-31.1419
1.11577e+08,-31.5979
1.11621e+08,-32.2631
1.11664e+08,-29.7388
1.11707e+08,-27.682
1.11751e+08,-28.5831
1.11794e+08,-28.1143
1.11837e+08,-28.6936
1.11881e+08,-24.5797
1.11924e+08,-24.5183
1.11967e+08,-24.5345
1.12011e+08,-26.9195
1.12054e+08,-20.9211
1.12097e+08,-19.8769
1.12141e+08,-19.7244
1.12184e+08,-20.9
1.12227e+08,-24.2485
1.12271e+08,-26.7116
1.12314e+08,-28.7826
1.12357e+08,-32.5214
1.12401e+08,-30.9422
1.12444e+08,-29.1794
1.12487e+08,-30.1184
1.12531e+08,-28.9586
1.12574e+08,-27.7872
1.12618e+08,-27.3533
1.12661e+08,-25.0317
1.12704e+08,-24.684
1.12748e+08,-25.251
1.12791e+08,-25.0867
1.12834e+08,-24.5953
1.12878e+08,-20.9765
1.12921e+08,-22.0036
1.12964e+08,-23.4469
1.13008e+08,-23.7614
1.13051e+08,-23.9568
1.13094e+08,-28.6569
1.13138e+08,-31.5459
1.13181e+08,-33.7281
1.13224e+08,-32.5098
1.13268e+08,-32.1224
1.13311e+08,-29.579
1.13354e+08,-29.9698
1.13398e+08,-26.4978
1.13441e+08,-26.4432
1.13484e+08,-23.9324
1.13528e+08,-24.273
1.13571e+08,-25.1982
1.13615e+08,-23.2125
1.13658e+08,-22.7425
1.13701e+08,-22.327
1.13745e+08,-20.5387
1.13788e+08,-20.9018
1.13831e+08,-21.9744
1.13875e+08,-30.3032
1.13918e+08,-31.5287
1.13961e+08,-32.9721
1.14005e+08,-32.8087
1.14048e+08,-30.8468
1.14091e+08,-30.5716
1.14135e+08,-31.466
1.14178e+08,-28.7853
1.14221e+08,-26.9973
1.14265e+08,-22.1869
1.14308e+08,-21.3834
1.14351e+08,-22.3709
1.14395e+08,-25.4379
1.14438e+08,-20.9268
1.14481e+08,-20.0232
1.14525e+08,-18.3966
1.14568e+08,-19.8639
1.14612e+08,-21.7279
1.14655e+08,-22.0391
1.14698e+08,-30.7552
1.14742e+08,-31.5156
1.14785e+08,-33.1265
1.14828e+08,-32.8599
1.14872e+08,-31.6848
1.14915e+08,-31.3249
1.14958e+08,-29.6723
1.15002e+08,-28.0034
1.15045e+08,-28.3171
1.15088e+08,-26.1105
1.15132e+08,-26.9306
1.15175e+08,-27.0917
1.15218e+08,-26.0456
1.15262e+08,-23.1204
1.15305e+08,-22.7556
1.15348e+08,-21.3754
1.15392e+08,-23.1195
1.15435e+08,-24.6155
1.15478e+08,-32.6658
1.15522e+08,-33.1866
1.15565e+08,-32.9804
1.15609e+08,-32.9547
1.15652e+08,-32.3198
1.15695e+08,-31.3572
1.15739e+08,-32.0144
1.15782e+08,-31.8932
1.15825e+08,-28.4709
1.15869e+08,-26.8967
1.15912e+08,-26.2127
1.15955e+08,-27.0822
1.15999e+08,-29.037
1.16042e+08,-28.9366
1.16085e+08,-25.3123
1.16129e+08,-21.1741
1.16172e+08,-23.5867
1.16215e+08,-25.697
1.16259e+08,-31.3477
1.16302e+08,-33.2041
1.16345e+08,-32.7223
1.16389e+08,-33.5976
1.16432e+08,-30.5045
1.16475e+08,-28.9859
1.16519e+08,-29.8226
1.16562e+08,-29.4451
1.16606e+08,-28.8879
1.16649e+08,-27.5548
1.16692e+08,-25.4362
1.16736e+08,-24.823
1.16779e+08,-28.2906
1.16822e+08,-26.6314
1.16866e+08,-25.0526
1.16909e+08,-23.9414
1.16952e+08,-24.5874
1.16996e+08,-25.4873
1.17039e+08,-27.7088
1.17082e+08,-32.4144
1.17126e+08,-32.9201
1.17169e+08,-33.5765
1.17212e+08,-32.6625
1.17256e+08,-32.0692
1.17299e+08,-32.6653
1.17342e+08,-32.1706
1.17386e+08,-30.8499
1.17429e+08,-28.5353
1.17472e+08,-26.6303
1.17516e+08,-25.5852
1.17559e+08,-26.8847
1.17603e+08,-27.866
1.17646e+08,-24.2004
1.17689e+08,-22.702
1.17733e+08,-24.9548
1.17776e+08,-24.1849
1.17819e+08,-24.3864
1.17863e+08,-31.8549
1.17906e+08,-32.3626
1.17949e+08,-32.533
1.17993e+08,-31.7927
1.18036e+08,-32.2582
1.18079e+08,-31.836
1.18123e+08,-31.8358
1.18166e+08,-31.4345
1.18209e+08,-28.5687
1.18253e+08,-26.4765
1.18296e+08,-27.4486
1.18339e+08,-27.0123
1.18383e+08,-28.1562
1.18426e+08,-27.9021
1.18469e+08,-28.6281
1.18513e+08,-27.3383
1.18556e+08,-26.7243
1.186e+08,-27.9016
1.18643e+08,-30.6356
1.18686e+08,-33.2369
1.1873e+08,-34.3517
1.18773e+08,-33.4797
1.18816e+08,-34.1655
1.1886e+08,-31.9655
1.18903e+08,-31.7818
1.18946e+08,-30.6987
1.1899e+08,-29.8492
1.19033e+08,-27.555
1.19076e+08,-27.2608
1.1912e+08,-23.9926
1.19163e+08,-27.688
1.19206e+08,-28.2066
1.1925e+08,-26.3195
1.19293e+08,-26.8078
1.19336e+08,-27.3662
1.1938e+08,-26.9011
1.19423e+08,-26.8066
1.19466e+08,-31.5962
1.1951e+08,-30.9691
1.19553e+08,-33.6996
1.19597e+08,-33.3358
1.1964e+08,-32.985
1.19683e+08,-32.2433
1.19727e+08,-32.7487
1.1977e+08,-31.6861
1.19813e+08,-26.7536
1.19857e+08,-25.2395
1.199e+08,-24.9436
1.19943e+08,-27.5189
1.19987e+08,-27.0969
1.2003e+08,-28.4266
1.20073e+08,-27.8386
1.20117e+08,-26.0709
1.2016e+08,-27.757
1.20203e+08,-27.439
1.20247e+08,-29.7047
1.2029e+08,-32.2918
1.20333e+08,-34.0443
1.20377e+08,-32.6227
1.2042e+08,-32.0545
1.20463e+08,-32.9971
1.20507e+08,-31.9766
1.2055e+08,-32.7027
1.20594e+08,-31.3647
1.20637e+08,-28.8655
1.2068e+08,-27.2041
1.20724e+08,-27.2255
1.20767e+08,-28.6958
1.2081e+08,-28.862
1.20854e+08,-27.664
1.20897e+08,-25.188
1.2094e+08,-27.4649
1.20984e+08,-26.0034
1.21027e+08,-30.4338
1.2107e+08,-30.782
1.21114e+08,-34.7076
1.21157e+08,-34.1773
1.212e+08,-32.7727
1.21244e+08,-33.3328
1.21287e+08,-32.2965
1.2133e+08,-30.8803
1.21374e+08,-31.6678
1.21417e+08,-29.8906
1.2146e+08,-29.6858
1.21504e+08,-28.6977
1.21547e+08,-30.1856
1.21591e+08,-30.5093
1.21634e+08,-30.4166
1.21677e+08,-31.3603
1.21721e+08,-31.3084
1.21764e+08,-30.6821
1.21807e+08,-29.8693
1.21851e+08,-33.2049
1.21894e+08,-33.2544
1.21937e+08,-34.3879
1.21981e+08,-34.2342
1.22024e+08,-32.1881
1.22067e+08,-32.8902
1.22111e+08,-32.538
1.22154e+08,-32.6439
1.22197e+08,-31.4083
1.22241e+08,-30.5632
1.22284e+08,-30.0805
1.22327e+08,-30.5048
1.22371e+08,-30.2581
1.22414e+08,-29.2867
1.22457e+08,-29.4627
1.22501e+08,-29.0462
1.22544e+08,-27.8887
1.22588e+08,-29.6126
1.22631e+08,-31.9907
1.22674e+08,-34.8176
1.22718e+08,-34.766
1.22761e+08,-33.7378
1.22804e+08,-34.7855
1.22848e+08,-32.8026
1.22891e+08,-34.019
1.22934e+08,-34.2445
1.22978e+08,-29.2036
1.23021e+08,-27.4752
1.23064e+08,-27.4538
1.23108e+08,-28.7049
1.23151e+08,-30.3207
1.23194e+08,-30.7685
1.23238e+08,-30.2298
1.23281e+08,-30.1354
1.23324e+08,-29.1167
1.23368e+08,-29.3759
1.23411e+08,-31.6427
1.23454e+08,-32.3919
1.23498e+08,-35.8918
1.23541e+08,-35.5805
1.23585e+08,-35.0975
1.23628e+08,-33.2429
1.23671e+08,-32.7344
1.23715e+08,-32.8999
1.23758e+08,-31.6459
1.23801e+08,-31.8438
1.23845e+08,-31.9401
1.23888e+08,-31.64
1.23931e+08,-30.1405
1.23975e+08,-32.1402
1.24018e+08,-31.4543
1.24061e+08,-30.6105
1.24105e+08,-30.9868
1.24148e+08,-33.2497
1.24191e+08,-31.5147
1.24235e+08,-33.3327
1.24278e+08,-36.1196
1.24321e+08,-36.5234
1.24365e+08,-31.5401
1.24408e+08,-34.396
1.24451e+08,-34.1184
1.24495e+08,-32.6018
1.24538e+08,-34.1659
1.24582e+08,-33.4735
1.24625e+08,-33.1888
1.24668e+08,-30.4644
1.24712e+08,-31.2195
1.24755e+08,-29.7317
1.24798e+08,-31.9388
1.24842e+08,-32.7421
1.24885e+08,-31.1081
1.24928e+08,-32.8885
1.24972e+08,-34.291
1.25015e+08,-32.565
1.25058e+08,-36.9018
1.25102e+08,-34.1331
1.25145e+08,-35.3175
1.25188e+08,-35.6215
1.25232e+08,-35.1175
1.25275e+08,-31.9847
1.25318e+08,-32.071
1.25362e+08,-32.8397
1.25405e+08,-33.0835
1.25448e+08,-31.5903
1.25492e+08,-32.6981
1.25535e+08,-31.7491
1.25579e+08,-32.5313
1.25622e+08,-30.9799
1.25665e+08,-33.9049
1.25709e+08,-34.417
1.25752e+08,-36.3115
1.25795e+08,-35.2528
1.25839e+08,-35.1405
1.25882e+08,-36.3989
1.25925e+08,-33.4766
1.25969e+08,-34.9101
1.26012e+08,-35.3403
1.26055e+08,-34.7625
1.26099e+08,-34.9844
1.26142e+08,-31.6668
1.26185e+08,-34.6425
1.26229e+08,-32.1558
1.26272e+08,-32.351
1.26315e+08,-32.2187
1.26359e+08,-32.071
1.26402e+08,-30.7309
1.26445e+08,-32.8035
1.26489e+08,-32.8413
1.26532e+08,-35.1924
1.26576e+08,-36.4544
1.26619e+08,-36.4471
1.26662e+08,-35.613
1.26706e+08,-35.2127
1.26749e+08,-35.1793
1.26792e+08,-34.6252
1.26836e+08,-34.5169
1.26879e+08,-35.0228
1.26922e+08,-33.6388
1.26966e+08,-34.1683
1.27009e+08,-34.4209
1.27052e+08,-32.3667
1.27096e+08,-32.1023
1.27139e+08,-33.0982
1.27182e+08,-33.3244
1.27226e+08,-31.632
1.27269e+08,-35.2632
1.27312e+08,-36.383
1.27356e+08,-36.8877
1.27399e+08,-36.3613
1.27442e+08,-36.2433
1.27486e+08,-36.6019
1.27529e+08,-35.5368
1.27573e+08,-36.1729
1.27616e+08,-35.9298
1.27659e+08,-35.6868
1.27703e+08,-34.9153
1.27746e+08,-35.1413
1.27789e+08,-34.2942
1.27833e+08,-31.2502
1.27876e+08,-33.4371
1.27919e+08,-32.0232
1.27963e+08,-33.234
1.28006e+08,-32.5031
1.28049e+08,-32.4756
1.28093e+08,-34.4331
1.28136e+08,-36.6712
1.28179e+08,-36.0833
1.28223e+08,-34.8857
1.28266e+08,-36.0876
1.28309e+08,-35.4315
1.28353e+08,-35.9844
1.28396e+08,-34.646
1.28439e+08,-35.0062
1.28483e+08,-34.9171
1.28526e+08,-34.0996
1.2857e+08,-35.7725
1.28613e+08,-34.352
1.28656e+08,-34.3293
1.287e+08,-32.783
1.28743e+08,-33.4891
1.28786e+08,-32.5238
1.2883e+08,-34.9302
1.28873e+08,-36.298
1.28916e+08,-35.9965
1.2896e+08,-37.1471
1.29003e+08,-36.8077
1.29046e+08,-37.4271
1.2909e+08,-35.5713
1.29133e+08,-36.8827
1.29176e+08,-36.6633
1.2922e+08,-37.1985
1.29263e+08,-36.8849
1.29306e+08,-35.7549
1.2935e+08,-35.0915
1.29393e+08,-36.3533
1.29436e+08,-35.0156
1.2948e+08,-35.3432
1.29523e+08,-33.6959
1.29567e+08,-34.7882
1.2961e+08,-34.4421
1.29653e+08,-34.0362
1.29697e+08,-36.8988
1.2974e+08,-38.2208
1.29783e+08,-37.7396
1.29827e+08,-38.0226
1.2987e+08,-36.8832
1.29913e+08,-37.257
1.29957e+08,-35.7842
1.3e+08,-36.6413
